,AF3,AF4,Fp1,Fp2,AF7,AF8
0,0.0175377298146486,0.0302402079105377,-0.0137476390227675,0.0194678343832493,-0.041129644960165,0.0506933107972145
1,0.0163210276514292,0.0315569192171097,-0.0100556425750256,0.0179356727749109,-0.0327551141381264,0.0410527139902115
2,0.0197330806404352,0.0275409892201424,-0.0080601414665579,0.0105659794062376,-0.02835388854146,0.0264694932848215
3,0.02924869582057,0.0169458128511906,-0.0082782581448555,0.0040296553634107,-0.0303340572863817,0.016376243904233
4,0.0357894003391266,0.005837760400027,-0.0098058143630623,0.0038013479206711,-0.0364836528897285,0.0156904105097055
5,0.0298086702823639,-0.0029749725945293,-0.0158043373376131,0.0041680480353534,-0.0471340976655483,0.020208889618516
6,0.0164764411747456,-0.0114417616277933,-0.0269501786679029,-0.0052111111581325,-0.0584650561213493,0.0176110826432705
7,0.0071260305121541,-0.0170326847583056,-0.033354002982378,-0.0209468845278025,-0.0593522973358631,0.0031991403084248
8,0.0029967976734042,-0.0169702973216772,-0.0281482394784689,-0.0305918771773577,-0.0481604002416134,-0.0130507433786988
9,-0.0017704904312267,-0.0142103070393205,-0.0171234905719757,-0.0298221167176962,-0.0344598554074764,-0.0176549144089222
10,-0.0085973860695958,-0.0104808090254664,-0.0083638494834303,-0.0226520448923111,-0.0256570167839527,-0.0065832808613777
11,-0.0145941358059645,-0.0027929109055548,-0.0047135632485151,-0.0140259815379977,-0.0248962361365557,0.0098597379401326
12,-0.0176797360181808,0.0094307363033294,-0.005155655555427,-0.0075619495473802,-0.0319319441914558,0.0183185264468193
13,-0.0168947577476501,0.0204259697347879,-0.0076322979293763,-0.0049624536186456,-0.0417706966400146,0.0156328938901424
14,-0.0131777487695217,0.0233885422348976,-0.0111664216965437,-0.0068764998577535,-0.0486441068351269,0.0056446772068738
15,-0.0099152224138379,0.0169456228613853,-0.0154704675078392,-0.0130196530371904,-0.0502152666449547,-0.0082958592101931
16,-0.0090836780145764,0.0059293960221111,-0.0192461498081684,-0.0201208461076021,-0.0472755022346973,-0.0222522113472223
17,-0.009404631331563,-0.0043221125379204,-0.0206863209605217,-0.0242302808910608,-0.0415703728795052,-0.0299177896231413
18,-0.0093492353335022,-0.0115324221551418,-0.0197736173868179,-0.0248233396559954,-0.0351069271564484,-0.028122728690505
19,-0.0091044222936034,-0.0149693135172129,-0.0180862694978714,-0.0239462647587061,-0.029765035957098,-0.0208922084420919
20,-0.0088786231353879,-0.014915001578629,-0.0165397804230452,-0.0230935756117105,-0.0267970245331526,-0.0131476651877165
21,-0.0079816235229373,-0.0129325548186898,-0.0153930960223079,-0.0217661466449499,-0.0271430220454931,-0.005726299714297
22,-0.0070799645036459,-0.0098798722028732,-0.0156965348869562,-0.0187385436147451,-0.0306965820491314,0.0013023506617173
23,-0.0081497691571712,-0.005535312462598,-0.0187323652207851,-0.0150444116443396,-0.0363018438220024,0.0053834291175007
24,-0.0116375107318163,-0.0010889691766351,-0.0235990416258574,-0.0135932806879282,-0.0420616790652275,0.0037394070532172
25,-0.0148587198927999,0.0021616457961499,-0.0271581523120403,-0.0143556296825409,-0.0450157709419727,-5.12158912897576e-05
26,-0.0145417246967554,0.0036779392976313,-0.0277072433382273,-0.014636093750596,-0.0432298891246319,-0.0003435325343161
27,-0.0105111757293344,0.0025609286967665,-0.0252709817141294,-0.0134564200416207,-0.0369972139596939,0.0009219849016517
28,-0.0048311096616089,-0.0004417385789565,-0.0200129915028811,-0.0117476135492325,-0.0288784094154835,-5.44869762961753e-05
29,-0.0001598406670382,-0.0026714764535427,-0.0144413383677602,-0.010436175391078,-0.0241922959685326,-0.0011264263885095
30,0.0017675765557214,-0.0015461476286873,-0.0116204675287008,-0.0088438969105482,-0.0262898430228233,0.0025514720473438
31,0.0015351010952144,0.0037105316296219,-0.0119632808491588,-0.006298956926912,-0.0327297486364841,0.0107406387105584
32,0.0022390477824956,0.0109959747642279,-0.0142560778185725,-0.0036736659239977,-0.0388711392879486,0.0174711532890797
33,0.0062440456822514,0.016439413651824,-0.0157094988971949,-0.0017825104296207,-0.0415661409497261,0.019661670550704
34,0.0105117373168468,0.0175962839275599,-0.0130108967423439,-0.0004700238932855,-0.0399347022175789,0.0209778621792793
35,0.010719015263021,0.0155109083279967,-0.0063030999153852,0.001723660621792,-0.0351804345846176,0.0265948083251715
36,0.0088029932230711,0.0127477645874023,0.0007730214274488,0.0058226147666573,-0.0292068440467119,0.0362538807094097
37,0.0092431064695119,0.010915364138782,0.0047273780219256,0.0097477044910192,-0.0250798929482698,0.0445341318845749
38,0.0114019634202123,0.0110413478687406,0.004575933329761,0.0114224506542087,-0.0253510549664497,0.0479260347783566
39,0.0128350919112563,0.013426274061203,0.0024616890586912,0.0129888849332929,-0.0277167521417141,0.0465336181223392
40,0.0135074714198709,0.0159972291439772,-3.44984619005118e-05,0.0160353034734726,-0.0292298682034016,0.0411686599254608
41,0.0149556649848819,0.0183305311948061,-0.0025343315210193,0.019007995724678,-0.0300769619643688,0.0351807400584221
42,0.0187830869108438,0.0234837960451841,-0.0037937317974865,0.0207469817250967,-0.0305867865681648,0.0320824719965458
43,0.0242168642580509,0.0312065090984106,-0.0031735592056065,0.020505927503109,-0.0290433932095766,0.0319463573396206
44,0.0274976026266813,0.038264062255621,-0.0014318397734314,0.0188008099794388,-0.0232728309929371,0.0342782326042652
45,0.0258014854043722,0.0430625528097153,-0.000451284344308,0.0171435680240393,-0.0135888606309891,0.0357657223939896
46,0.0206460244953632,0.0434294007718563,-0.0013041134225204,0.0156936347484589,-0.0028764270246028,0.0313557349145412
47,0.0151437940075994,0.0373499803245068,-0.0030436932574957,0.0149259082973003,0.004082737956196,0.0218992438167334
48,0.0120613062754273,0.0293658263981342,-0.0025521726347506,0.0167873166501522,0.0060683069750666,0.0132315596565604
49,0.0121843460947275,0.0269949864596128,0.0028375810943543,0.0220534428954124,0.0074828006327152,0.0098328813910484
50,0.0137747572734952,0.0298892986029387,0.0106369387358427,0.0280990283936262,0.0099079683423042,0.014790534041822
51,0.017245028167963,0.0322787202894688,0.0152156949043274,0.0296372938901186,0.0097644049674272,0.0281264521181583
52,0.0235999040305614,0.0319108739495277,0.0131935644894838,0.0236563980579376,0.0043296753428876,0.0387084968388081
53,0.0295552276074886,0.0293488390743732,0.0052951034158468,0.013188011944294,-0.0030289585702121,0.0331094674766064
54,0.0323868542909622,0.0248448047786951,-0.0041642063297331,0.004649996291846,-0.0050901668146252,0.0170433018356562
55,0.0339921414852142,0.0200238488614559,-0.0095342639833688,0.0033948696218431,0.000653043622151,0.0119656613096595
56,0.0350117534399033,0.0191699098795652,-0.0086378557607531,0.0088039301335811,0.0090413261204958,0.0269786044955254
57,0.0333542078733444,0.0250803381204605,-0.0038579865358769,0.0146587239578366,0.0130369635298848,0.0467309169471264
58,0.0292144324630499,0.0340373255312443,0.0016007149824872,0.016645934432745,0.0093954261392355,0.0507010966539383
59,0.0256237797439098,0.038808461278677,0.0060253497213125,0.0168174635618925,0.0004074890457559,0.0357363224029541
60,0.0239927750080824,0.0349612720310688,0.0076923631131649,0.0185025464743376,-0.0094923265278339,0.0147860320284963
61,0.0223523322492838,0.0249013192951679,0.0047404174692928,0.0199321769177914,-0.0173168443143368,0.0001525364350527
62,0.019557174295187,0.0158520545810461,-0.000553447403945,0.0184485577046871,-0.018976716324687,-0.0032433243468403
63,0.0174434147775173,0.0111116915941238,-0.0025257975794374,0.0159845650196075,-0.0115272188559175,0.0040012989193201
64,0.0193882901221514,0.0097393468022346,0.0015919560100883,0.0167025811970234,0.0018072350649163,0.0182014144957066
65,0.0265107732266188,0.0108736893162131,0.0078066205605864,0.0213696844875813,0.0129377041012049,0.0340353474020958
66,0.0348540358245373,0.0138385826721787,0.0104461256414652,0.0263286102563143,0.0157537572085857,0.0444423966109753
67,0.0381679087877274,0.0187673196196556,0.0085658282041549,0.0265024304389954,0.010971937328577,0.0425096713006496
68,0.0354461558163166,0.0253443270921707,0.0048119630664587,0.0200965460389853,0.0021956309210509,0.0271403547376394
69,0.0329441763460636,0.0322835817933083,0.0024283060338348,0.0117342369630933,-0.0081950314342975,0.0101280640810728
70,0.0312211979180574,0.0382237732410431,0.001547097810544,0.0056584440171718,-0.0199516862630844,0.0059285536408424
71,0.022963922470808,0.0410002432763577,-0.0004732172237709,0.0009883170714601,-0.032965537160635,0.0136245163157582
72,0.0093280542641878,0.038438156247139,-0.0038242149166762,-0.0020796724129468,-0.043028824031353,0.022347966209054
73,-0.0002580569125711,0.0308813843876123,-0.0055995364673435,0.0001315128756687,-0.0436283871531487,0.0271822698414326
74,-0.00028696845402,0.0227578766644001,-0.0032927589491009,0.0090094897896051,-0.0325578525662422,0.0304694324731827
75,0.0077659543603658,0.0184922777116299,0.0024021680001169,0.0203725807368755,-0.0154785178601742,0.0347261913120747
76,0.0178940389305353,0.0170517079532146,0.0086785061284899,0.0276945643126965,-0.000973418878857,0.037703949958086
77,0.0247904565185308,0.0148775316774845,0.0137351648882031,0.0277976766228676,0.006700802128762,0.0345678254961967
78,0.027222853153944,0.0117602907121181,0.0166443549096584,0.02330282330513,0.0073084207251668,0.0260981880128384
79,0.0277452226728201,0.0105933444574475,0.0166563540697098,0.0181083101779222,0.0028255339711904,0.0173624362796545
80,0.0296079460531473,0.0133227361366153,0.0141708310693502,0.013394714333117,-0.002645538188517,0.0110172908753157
81,0.0330657549202442,0.018654678016901,0.0106733152642846,0.0102892024442554,-0.0055266707204282,0.0105329547077417
82,0.0353707894682884,0.0229122955352068,0.0065807602368295,0.0100430063903332,-0.0059273559600114,0.0197035223245621
83,0.034841924905777,0.0232380870729685,0.0020651340018957,0.0121016316115856,-0.0052024121396243,0.0336005613207817
84,0.0327818021178246,0.0198865402489901,-0.0008628205978311,0.0152616975829005,-0.0022145677357912,0.041123878210783
85,0.0303471013903618,0.0153323234990239,-0.0005635907291434,0.0179635994136333,0.0051860488019883,0.0376270785927773
86,0.0274477601051331,0.0124911880120635,0.0021593100391328,0.0184926800429821,0.0152899967506528,0.0294951926916838
87,0.0261604636907578,0.0137087991461158,0.0055257696658372,0.0172491390258074,0.0209924448281527,0.0279693007469177
88,0.0305146165192127,0.0194153282791376,0.009215623140335,0.0176178049296141,0.0178836993873119,0.0371942184865475
89,0.0388109870254993,0.0258254557847977,0.0127535127103329,0.0204089526087046,0.0093295499682426,0.0479561872780323
90,0.0446517951786518,0.0275759715586901,0.0140078542754054,0.0220155976712704,0.0024713317397981,0.0485156215727329
91,0.0469384603202343,0.0246619638055563,0.0107685206457973,0.0197257231920958,0.0008678927551954,0.0370167791843414
92,0.0480224713683128,0.0202305056154728,0.0026694873813539,0.0124894361943007,-5.68060313526075e-05,0.0200822222977877
93,0.0450842529535294,0.0156541522592306,-0.0061738304793834,0.0030011578928679,-0.0052542448975145,0.0073190312832593
94,0.0357519425451756,0.013433369807899,-0.0096915950998663,-0.0018593325512483,-0.0114433467388153,0.0058049620129168
95,0.0268005914986134,0.0150616224855185,-0.0053710485808551,0.0016214505303651,-0.0114592062309384,0.0166996624320745
96,0.0257470104843378,0.0160372890532017,0.0047629587352275,0.0106220375746489,-0.0028993228916078,0.0335941202938557
97,0.0315088331699371,0.0117389764636755,0.0159124061465263,0.0192931424826384,0.0111086359247565,0.0430626161396503
98,0.0393460504710674,0.0043342583812773,0.0238974913954735,0.024175813421607,0.0262432247400284,0.0386030897498131
99,0.0481158308684826,-0.0013165879063308,0.0283018350601196,0.025993125513196,0.0392713658511639,0.0278655253350735
100,0.0572440698742867,-0.0027817613445222,0.0308012720197439,0.026176068931818,0.047085952013731,0.021057965233922
101,0.0619011707603931,0.0012577137676999,0.0326592437922955,0.0252448655664921,0.0472249127924442,0.0221083089709282
102,0.0588600374758244,0.0117303784936666,0.035376850515604,0.0253019277006388,0.0416313149034977,0.0296245161443949
103,0.051813118159771,0.0262351762503386,0.0376993492245674,0.0270101279020309,0.0337361954152584,0.0409353189170361
104,0.0457310639321804,0.0375127494335175,0.0356280840933323,0.0271786712110043,0.0240733250975609,0.0532216653227806
105,0.0411995910108089,0.0392500124871731,0.0299117229878902,0.0250584203749895,0.0150550669059157,0.0635369271039963
106,0.0373365506529808,0.0318566523492336,0.0246769357472658,0.0228868592530489,0.0106354905292392,0.0684642270207405
107,0.0375154167413712,0.0206087753176689,0.0221721492707729,0.0226594731211662,0.0109503464773297,0.0657580122351646
108,0.0428611934185028,0.0100596556439996,0.0233072750270367,0.026301059871912,0.0149022722616792,0.0588901340961456
109,0.0471691526472569,0.0024278860073536,0.0288418754935265,0.0346678011119366,0.0241626929491758,0.0540269128978252
110,0.0462456606328487,-0.0009553614072501,0.0385189056396484,0.0461806394159794,0.037565466016531,0.0528937578201294
111,0.0410885512828827,-0.0009340633405372,0.0483908504247665,0.0558715127408504,0.0464210845530033,0.0512421242892742
112,0.0343843400478363,0.0014843923272565,0.0526080690324306,0.0583845265209675,0.0435837469995022,0.0450791195034981
113,0.0283891595900059,0.0076631335541605,0.0484654754400253,0.0525686889886856,0.030096085742116,0.0357442311942577
114,0.0238163340836763,0.01643355935812,0.0374496728181839,0.0406996794044971,0.012773890979588,0.0249585509300232
115,0.0204351246356964,0.0221611242741346,0.0233198255300522,0.0266092158854008,-0.0007296350086107,0.0131290191784501
116,0.0187678784132004,0.0231852140277624,0.0110834361985326,0.0149648850783706,-0.006540912669152,0.0016034550499171
117,0.0198230445384979,0.023413997143507,0.0040703723207116,0.0078568533062934,-0.005087417550385,-0.0090991798788309
118,0.0235245171934366,0.0230903346091509,0.0019752823282033,0.0045253075659275,0.0013146086130291,-0.0195204187184572
119,0.0295952577143908,0.0194814465939999,0.002992667723447,0.0035523434635251,0.009998470544815,-0.0295476000756025
120,0.0363921411335468,0.0145916361361742,0.005272168200463,0.0025679951068013,0.0170089360326529,-0.0370327644050121
121,0.0403498969972134,0.0128920031711459,0.0069932369515299,0.0004505358228925,0.0184008684009314,-0.0400086753070354
122,0.0416853204369545,0.0167463328689337,0.0068973167799413,-0.0009703617542982,0.0155232651159167,-0.0366736352443695
123,0.0451270267367363,0.0241610910743475,0.0065759313292801,-9.03470572666265e-05,0.0167375281453133,-0.0243055503815413
124,0.051549918949604,0.0282057337462902,0.0085985204204917,0.0020407671108841,0.0278775971382856,-0.0061921253800392
125,0.0567150972783566,0.0258698519319296,0.0119235264137387,0.0044191679917275,0.0439249612390995,0.009586963802576
126,0.0576833076775074,0.0215852316468954,0.0147641748189926,0.0082878312095999,0.0557561852037907,0.0201840065419674
127,0.0550821907818317,0.0213465988636017,0.018558856099844,0.0148903345689178,0.0594822876155376,0.0294781755656004
128,0.0525856539607048,0.0279091093689203,0.0256774704903364,0.0239300653338432,0.0578260086476803,0.0412662327289581
129,0.05301683396101,0.0367223136126995,0.0349536500871181,0.0335789434611797,0.0545816645026207,0.0523760542273521
130,0.0536750331521034,0.0410831570625305,0.0402947179973125,0.0402934886515141,0.0494564771652222,0.0567986406385899
131,0.04986771941185,0.0398155003786087,0.0367188602685928,0.0405648574233055,0.041075024753809,0.0518775396049023
132,0.0418809130787849,0.0355866104364395,0.0271877758204937,0.0346100218594074,0.0317704156041145,0.0385579243302345
133,0.0333831645548344,0.0295008886605501,0.0176338646560907,0.02504638209939,0.0249625984579325,0.0207665599882603
134,0.0263153668493032,0.0210792347788811,0.0103689664974809,0.0144319357350469,0.0208058319985867,0.0031584382522851
135,0.023334639146924,0.0128716165199876,0.0055936663411557,0.006379974540323,0.0178155638277531,-0.0097004557028412
136,0.0266714468598366,0.0079142581671476,0.0020591504871845,0.0016654727514833,0.0162059683352709,-0.0162546709179878
137,0.0334370024502277,0.0069233421236276,0.0006892770761623,-0.0005272742127999,0.020451545715332,-0.0171515736728907
138,0.0398921109735966,0.0107314502820373,0.0054599004797637,0.0015534458216279,0.0330363586544991,-0.0118872979655862
139,0.0428287945687771,0.0186888426542282,0.0151365008205175,0.0065593938343226,0.0450232774019241,-0.0014109296025708
140,0.0400462597608566,0.0273169409483671,0.0241031982004642,0.0102004325017333,0.046764574944973,0.0115010039880872
141,0.0338155440986156,0.0327893048524857,0.0298271849751472,0.0110776014626026,0.0407080091536045,0.0199425797909498
142,0.0268948189914227,0.0330003164708614,0.0339079238474369,0.0106316953897476,0.0350222289562225,0.0161920599639416
143,0.0199940018355846,0.0288199800997972,0.0381018444895744,0.0112706068903208,0.0333830863237381,0.0049365586601197
144,0.0139528028666973,0.0238266550004482,0.0413421988487244,0.0143196238204837,0.034122209995985,-0.0017540921689942
145,0.0110604148358107,0.0211835522204638,0.0427454859018326,0.0192034728825092,0.0362234674394131,-0.001210203859955
146,0.0120687810704112,0.0209177024662495,0.0424351245164871,0.0237679705023766,0.038347139954567,7.42583279134124e-06
147,0.0135361887514591,0.0225831065326929,0.0404644906520844,0.025400385260582,0.0378952659666538,-0.0030069998465478
148,0.0123096061870456,0.0270942114293575,0.0376132242381573,0.0235382448881865,0.0357986502349377,-0.0080786105245351
149,0.0089230928570032,0.0312820449471474,0.033955343067646,0.0188942644745111,0.0341378748416901,-0.0116425007581711
150,0.0066092265769839,0.0286753792315722,0.029989805072546,0.0131741287186742,0.0349845550954342,-0.0142019353806973
151,0.0076106605120003,0.0195799898356199,0.0275971628725529,0.0104568051174283,0.0408662036061287,-0.0145530672743917
152,0.0098723731935024,0.0116346813738346,0.0275169052183628,0.0128303961828351,0.0493364259600639,-0.0103239212185144
153,0.0108636999502778,0.0109631950035691,0.0291408579796553,0.0173673834651709,0.0550594441592693,-0.004979183897376
154,0.0103196920827031,0.0168932005763054,0.0312036741524935,0.0202639177441597,0.0570768900215626,-0.0033961269073188
155,0.0088945552706718,0.0237891171127558,0.0325667709112167,0.0208845175802708,0.057397186756134,-0.0041598523966968
156,0.0091891316697001,0.0284594465047121,0.0337106958031654,0.0213942155241966,0.0569020248949528,-0.0011483022244647
157,0.0129076316952705,0.0313078910112381,0.0344651825726032,0.0236778501421213,0.0539896301925182,0.0080754207447171
158,0.0180320981889963,0.0313157178461552,0.0329912416636944,0.0271788761019707,0.0480096600949764,0.0183178056031466
159,0.0222275704145432,0.0276829749345779,0.0290023405104876,0.0292320679873228,0.0425922013819218,0.0237684696912766
160,0.0248091090470552,0.0231524910777807,0.0236984044313431,0.0283951722085476,0.0390921644866467,0.0262307524681091
161,0.0251140184700489,0.0214592218399048,0.0187491700053215,0.026641583070159,0.0333443731069565,0.0303444340825081
162,0.0224538464099169,0.0233627296984196,0.0167264528572559,0.0267436821013689,0.0236781798303127,0.0349120162427425
163,0.0176171641796827,0.0259436070919037,0.0182989630848169,0.0287175159901381,0.0141451461240649,0.0357724837958813
164,0.0122784543782473,0.0257950033992529,0.0208005420863628,0.0299106445163488,0.0087630357593298,0.0316509678959847
165,0.0075697628781199,0.0228465385735035,0.0214286278933287,0.0278925243765116,0.0075510591268539,0.0234022196382284
166,0.0036816273350268,0.0186956413090229,0.0191273707896471,0.0219363514333963,0.0074765859171748,0.0118420477956533
167,0.0011973252985626,0.0140531379729509,0.0152777191251516,0.0134362559765577,0.0067658694460988,-0.0011700286995619
168,0.0010921950452029,0.0107004167512059,0.0126575483009219,0.005199852399528,0.0065395543351769,-0.01251120865345
169,0.0031907286029309,0.0112993214279413,0.0128889754414558,-0.0003520722675602,0.0079885423183441,-0.0192034840583801
170,0.006698973942548,0.0163985677063465,0.0161792784929276,-0.0017898557707667,0.0111630549654365,-0.0194033440202475
171,0.0110411010682583,0.0242314115166664,0.0217004753649235,0.0005797902122139,0.0162487104535103,-0.0146736185997725
172,0.0150164719671011,0.0315548405051231,0.0267002619802952,0.0040612453594803,0.0228288117796183,-0.008995764888823
173,0.0171057190746069,0.0345617309212685,0.0289964098483324,0.0062112980522215,0.0294493269175291,-0.0056611276231706
174,0.0178577024489641,0.03282555565238,0.0305293444544077,0.0078665176406502,0.0361267551779747,-0.004858648404479
175,0.0198850315064192,0.0291475411504507,0.0329010114073753,0.0105719678103924,0.0426227487623692,-0.0042891539633274
176,0.0262213349342346,0.0258161462843418,0.0344940945506096,0.0141346687451005,0.0470587462186813,-0.0026560556143522
177,0.0376159735023975,0.0241250116378069,0.0337667278945446,0.0171905849128962,0.0484601408243179,-0.0003365927550476
178,0.0487747527658939,0.0248625911772251,0.0305153634399176,0.0174900628626347,0.0468804948031902,0.0005306184175424
179,0.0508828572928905,0.0290632378309965,0.02619344368577,0.0155139621347189,0.0425960905849934,-0.0002001788088819
180,0.0412947274744511,0.0356152132153511,0.0231361463665962,0.0151622937992215,0.0351439341902733,0.0019668710883706
181,0.0267769936472178,0.0391324870288372,0.0222473852336407,0.0171647612005472,0.0238214731216431,0.0079325465485453
182,0.0151871154084802,0.0346209220588207,0.0223391652107239,0.0175336990505457,0.0114791449159384,0.0120104299858212
183,0.0099751316010952,0.0230252388864756,0.0221093464642763,0.0135592054575682,0.0035722821485251,0.0100435568019748
184,0.0102884024381638,0.0104701248928905,0.0219480954110622,0.0069078686647117,0.0026979080867022,0.0021909528877586
185,0.0122031299397349,0.0019451236585155,0.0220191460102797,0.0010775114642456,0.0066391183063387,-0.00880176294595
186,0.0136040151119232,-0.0018145232461392,0.0210951957851648,-0.0019173304317519,0.0110942889004946,-0.0199343618005514
187,0.0133469616994262,-0.0013741513248533,0.0190638080239296,-0.0016274516237899,0.0128563120961189,-0.0281189512461424
188,0.008990578353405,0.0036215034779161,0.0178665649145842,0.0023142097052186,0.0115435430780053,-0.0291075743734837
189,0.00187482254114,0.0125946849584579,0.0179261993616819,0.0082258898764848,0.0092537216842174,-0.0231428164988756
190,-0.0039128810167312,0.0229475405067205,0.0170661900192499,0.0112449871376157,0.0068236864171922,-0.0169616378843784
191,-0.0069177858531475,0.0320596098899841,0.0149559546262026,0.0080368034541606,0.0041021262295544,-0.0164527632296085
192,-0.0076664970256388,0.0377618297934532,0.0139776859432459,0.0006803760770708,0.0027608580421656,-0.0198255386203527
193,-0.0067984773777425,0.0373425260186195,0.0155148459598422,-0.0066195973195135,0.0040822168812155,-0.0198630671948195
194,-0.0057355039753019,0.0296372026205063,0.0181560292840004,-0.011828912422061,0.0071886121295392,-0.0144950179383159
195,-0.0065167220309376,0.0178696680814028,0.0194778051227331,-0.0143659301102161,0.010461906902492,-0.0100199719890952
196,-0.0099159907549619,0.0073840208351612,0.0180329214781523,-0.0146492114290595,0.0124341296032071,-0.0112869534641504
197,-0.0145391225814819,0.0004062492516823,0.0139462184160948,-0.0147909540683031,0.012294982559979,-0.0165563896298409
198,-0.0181664191186428,-0.0045266356319189,0.0090808654204011,-0.0165122207254171,0.0103340204805136,-0.0219748951494694
199,-0.0197936724871397,-0.0085356077179312,0.0057327952235937,-0.019162880256772,0.0073909210041165,-0.0242055021226406
200,-0.0191205032169819,-0.0114041538909078,0.0048037064261734,-0.0211201645433903,0.0054056271910667,-0.0222067795693874
201,-0.0159335881471634,-0.011879263445735,0.0066466168500483,-0.0210892967879772,0.0069125769659876,-0.01812251098454
202,-0.0124499127268791,-0.0084680281579494,0.0116236312314868,-0.0188531596213579,0.0100360522046685,-0.0147837251424789
203,-0.0111714033409953,-0.0014582260046154,0.0186957363039255,-0.0150550128892064,0.0105317467823625,-0.0133337629958987
204,-0.0113236764445901,0.0071526481769979,0.025194862857461,-0.0102258864790201,0.0082998620346188,-0.0126981073990464
205,-0.0118930144235492,0.0140191717073321,0.0284862294793129,-0.006329305935651,0.004411285277456,-0.0118631012737751
206,-0.0126654282212257,0.0172961205244064,0.0282001737505198,-0.0054681301116943,-0.0014105828013271,-0.0110129788517952
207,-0.012890312820673,0.0194950886070728,0.0256659872829914,-0.0063523459248244,-0.0081859156489372,-0.0075603970326483
208,-0.0129678603261709,0.0235246159136295,0.0218182578682899,-0.0055033760145306,-0.0141429984942079,0.0042620468884706
209,-0.0137765379622579,0.0277101378887892,0.0178896859288216,-0.001844581682235,-0.0182669050991535,0.0211196299642324
210,-0.0143417157232761,0.0283913966268301,0.0159328076988459,0.0019475244916975,-0.0189514886587858,0.0295034907758236
211,-0.0132615929469466,0.0257017593830824,0.0167146008461714,0.0038532200269401,-0.0143315047025681,0.0240972638130188
212,-0.01043566968292,0.0228303093463182,0.0194685980677605,0.0052423034794628,-0.0051813470199704,0.0098677165806293
213,-0.0066131642088294,0.0208559297025204,0.0229688081890345,0.0071429754607379,0.0051520667038857,-0.008530986495316
214,-0.0027942070737481,0.0188641492277384,0.0260586105287075,0.0081809591501951,0.0143635235726833,-0.0267252698540688
215,0.0005028594750911,0.017443485558033,0.0278486758470535,0.0079096117988228,0.020971080288291,-0.0393738709390163
216,0.0024002587888389,0.017135402187705,0.0274308808147907,0.0069031091406941,0.0220681447535753,-0.0445550605654716
217,0.0003554009890649,0.0173738468438387,0.025000125169754,0.0045746425166726,0.0174048822373152,-0.0446823313832283
218,-0.0072307861410081,0.0189321767538786,0.021826570853591,0.0004585483984556,0.0103933978825808,-0.0413518734276295
219,-0.0174688193947077,0.022599171847105,0.019818551838398,-0.0036148319486528,0.0045197224244475,-0.0325835458934307
220,-0.0252786930650473,0.0263583175837994,0.0207243319600821,-0.0044653099030256,0.0021440719719976,-0.0175016857683659
221,-0.0282823406159878,0.0271935481578112,0.0235900934785604,-0.0006161355995573,0.0034262507688254,-0.0016205523861572
222,-0.0274096541106701,0.0243574716150761,0.0257284455001354,0.0064652948640286,0.0068757026456296,0.0079653169959783
223,-0.02346146479249,0.0194105133414268,0.0261542685329914,0.0128077594563365,0.011619214899838,0.0099582253023982
224,-0.015727061778307,0.0147488657385111,0.0265324432402849,0.0153205329552293,0.0181798674166203,0.0071187638677656
225,-0.0063850311562418,0.011675450950861,0.027829647064209,0.0148574747145176,0.0254914369434118,0.0011447510914877
226,-0.0002815291518345,0.0107880663126707,0.0285774320363998,0.0137488469481468,0.029662374407053,-0.0063440855592489
227,0.0001362460170639,0.0136209418997169,0.027298578992486,0.0119630042463541,0.0281283278018236,-0.0112853311002254
228,-0.003874416463077,0.0202815774828196,0.024141501635313,0.0084941303357482,0.0227215234190226,-0.0104616908356547
229,-0.0085364636033773,0.0283172074705362,0.0205774139612913,0.0051129548810422,0.0169753208756447,-0.003676054533571
230,-0.0114056533202529,0.0352510884404182,0.0177138056606054,0.0044990428723394,0.0118264574557543,0.0056399265304207
231,-0.0121658723801374,0.0390799790620804,0.0161674655973911,0.0069125387817621,0.0062457285821437,0.0115564120933414
232,-0.0112971747294068,0.0363810732960701,0.015221425332129,0.009080764837563,-0.0005878817173652,0.0110615538433194
233,-0.011774274520576,0.0245542582124472,0.0128765003755689,0.0071179419755935,-0.00567212048918,0.0052268146537244
234,-0.0159050170332193,0.0073767527937889,0.0088047524914145,0.0019508962286636,-0.0039964243769645,-0.0038598461542278
235,-0.0216367375105619,-0.0066785258240997,0.0041747433133423,-0.0031591553706675,0.0026301101315766,-0.01304766908288
236,-0.0270499363541603,-0.0120063154026866,9.36405558604747e-05,-0.0071785850450396,0.0071342950686812,-0.0170216299593449
237,-0.0329238548874855,-0.0081837670877575,-0.002585852285847,-0.0099146664142608,0.0050259600393474,-0.0133962109684944
238,-0.039901252835989,0.0017258025472983,-0.0035911602899432,-0.0112004652619362,-0.0037359267007559,-0.0080973757430911
239,-0.0469256639480591,0.0118960225954652,-0.0035687782801687,-0.0119716096669436,-0.0161077808588743,-0.008354022167623
240,-0.050519447773695,0.0174345746636391,-0.0030044852755963,-0.0125350002199411,-0.027257164940238,-0.0137665951624513
241,-0.0471443198621273,0.0179090742021799,-0.0028429925441741,-0.0125359678640962,-0.0349030457437038,-0.0215639565140009
242,-0.0391710177063942,0.0160714630037546,-0.0050683692097663,-0.0130791421979666,-0.0406172387301922,-0.0311377942562103
243,-0.033833459019661,0.0142131978645921,-0.0097997784614563,-0.0153158670291305,-0.04415288195014,-0.0403345189988613
244,-0.03464674949646,0.0116471461951733,-0.0146905947476625,-0.0187552478164434,-0.0432047583162785,-0.0466991811990738
245,-0.0391397550702095,0.0072621116414666,-0.0177068132907152,-0.0219434015452862,-0.0382138602435589,-0.0497876927256584
246,-0.0427923053503037,0.002881834981963,-0.0185928232967854,-0.0233138035982847,-0.0321696698665619,-0.0491121560335159
247,-0.0424204282462597,0.0006272761966101,-0.0177662279456854,-0.0217762179672718,-0.0269597563892603,-0.0441734604537487
248,-0.0380629487335682,0.0002991698565892,-0.0150932446122169,-0.0176646243780851,-0.0221080593764782,-0.0368980541825294
249,-0.0327644906938076,0.0005928572500124,-0.0109169771894813,-0.0131333442404866,-0.0175335966050625,-0.0311343837529421
250,-0.0297141596674919,0.0005869579617865,-0.006602622102946,-0.0102728120982647,-0.0147014604881406,-0.0276995860040188
251,-0.0292384009808302,0.001012641005218,-0.0033835144713521,-0.0088716428726911,-0.0139649519696832,-0.0233546458184719
252,-0.0302154719829559,0.0018648160621523,-0.0026598740369081,-0.0078675476834178,-0.0153216021135449,-0.0174323637038469
253,-0.0309735089540482,0.0017419288633391,-0.0040010283701121,-0.0064697028137743,-0.0181264914572239,-0.0124874385073781
254,-0.0302302744239569,0.0008034664788283,-0.0038504274562001,-0.0048864223062992,-0.0180978402495384,-0.0107571687549353
255,-0.0298888832330704,-0.0001686268078628,-0.0005237207515165,-0.0050159110687673,-0.0126037616282701,-0.0143912695348263
256,-0.0321232825517654,-0.000428492174251,0.0035906196571886,-0.0073936232365667,-0.0058688893914222,-0.0227801892906427
257,-0.0352377966046333,0.0014398026978597,0.0069386260583996,-0.0093766190111637,-0.0024012806825339,-0.0303305014967918
258,-0.0361512713134289,0.0057132747024297,0.011021476238966,-0.0076467869803309,-0.0020767278037965,-0.031418789178133
259,-0.0337205044925213,0.0110062677413225,0.0167363099753857,-0.0014985003508627,-0.0031616368796676,-0.0257360935211182
260,-0.0287721510976553,0.0156217953190207,0.0223747529089451,0.0064124739728868,-0.0045661833137273,-0.0169716738164425
261,-0.0232887677848339,0.0179699491709471,0.0252618510276079,0.0125524448230863,-0.0061696073971688,-0.0083211110904812
262,-0.0186882298439741,0.0166728664189577,0.0247258897870779,0.0151038002222776,-0.0070013357326388,-0.002525235293433
263,-0.0150815434753895,0.0115355048328638,0.0228496193885803,0.0140257189050317,-0.0047571142204105,-0.0030470041092485
264,-0.0127673903480172,0.0047086188569665,0.0210223980247974,0.0104359360411763,-0.0003691181482281,-0.0094329891726374
265,-0.0131104551255703,-0.0010369179071858,0.0179020650684834,0.0056878756731748,0.0009083212353289,-0.0159299112856388
266,-0.0160928685218096,-0.0034339260309934,0.0129224993288517,0.0015875771641731,-0.0032099697273224,-0.016326954588294
267,-0.0194077100604773,-0.0008266363292932,0.0079143000766634,0.0002408390282653,-0.0092459060251712,-0.0086948247626423
268,-0.0222310461103916,0.0050706639885902,0.0037350286729633,0.0015037736156955,-0.0145048899576068,0.0025831947568804
269,-0.0251483023166656,0.0103586930781603,-2.0609075363609e-05,0.0038040650542825,-0.0191487353295088,0.0110492762178183
270,-0.0270600691437721,0.0128842508420348,-0.0027798456139862,0.0060151577927172,-0.021937120705843,0.0132840676233172
271,-0.026780229061842,0.0123553173616529,-0.003614698536694,0.0065040932968258,-0.0209132619202137,0.009410148486495
272,-0.024852741509676,0.0101676285266876,-0.0023993973154574,0.0047050612047314,-0.0173396375030279,0.0024134158156812
273,-0.0219080969691277,0.0090259322896599,0.000863084977027,0.0025367252528667,-0.0134368455037475,-0.0037847147323191
274,-0.0184552147984505,0.0105832424014807,0.0060689030215144,0.0022324153687804,-0.0098444083705544,-0.0067066713236272
275,-0.0157895740121603,0.01412910874933,0.0117839714512229,0.0044709714129567,-0.0076106805354356,-0.0059017268940806
276,-0.0142526254057884,0.0175332240760326,0.0158971399068832,0.0077206464484334,-0.0062059462070465,-0.0029015361797064
277,-0.0127136306837201,0.0197007954120636,0.0176744479686022,0.0099675729870796,-0.0028969040140509,-0.0001926565746543
278,-0.0113157462328672,0.0210157185792923,0.0170681085437536,0.0101785669103265,0.0016886554658412,-0.0011534714139998
279,-0.0110485618934035,0.0210160426795483,0.0142398523166776,0.008358210325241,0.0048727374523878,-0.0071815554983913
280,-0.0109784966334701,0.018708199262619,0.011182963848114,0.006417712662369,0.0068507534451782,-0.0135335838422179
281,-0.0095715308561921,0.0149322785437107,0.0100935641676188,0.0064961104653775,0.0082409214228391,-0.0143072754144669
282,-0.0064904824830591,0.0121127096936107,0.0117918057367206,0.0091780107468366,0.00896882917732,-0.0083729177713394
283,-0.0029118375387042,0.0120350243523717,0.0157488901168108,0.0137071823701262,0.0095543302595615,0.0023620112333446
284,-0.0006011779187247,0.0147143620997667,0.0197844617068768,0.0183843411505222,0.0099963601678609,0.0149623453617096
285,0.0009298284421674,0.0191608853638172,0.0225885901600122,0.0221264399588108,0.0111922118812799,0.0241520591080189
286,0.00291090272367,0.0226628892123699,0.0238439328968525,0.0239574853330851,0.0149008044973016,0.0238230172544718
287,0.0051660547032952,0.0217570755630732,0.0223003942519426,0.0220964942127466,0.0203105714172125,0.0130277033895254
288,0.0080391047522425,0.0171139873564243,0.0179797671735287,0.016561122611165,0.024209575727582,-0.0020027514547109
289,0.0115992818027735,0.0123855313286185,0.0128659820184112,0.009868056513369,0.0244612488895655,-0.0132549945265055
290,0.0133008798584342,0.0079307863488793,0.0085245333611965,0.0041914014145731,0.0210810974240303,-0.0161087457090616
291,0.010582503862679,0.001148389535956,0.0055473921820521,-0.0001065646574716,0.0150963393971324,-0.0122346943244338
292,0.0048522208817303,-0.0078014987520873,0.0044005997478961,-0.0032195565290749,0.0087918434292078,-0.0086246384307742
293,-0.000271769502433,-0.0149688096717,0.0054411175660789,-0.0044806697405874,0.0047468142583966,-0.0088090682402253
294,-0.003322246717289,-0.0170124508440495,0.0079486006870865,-0.0032634392846375,0.0035300222225487,-0.0083756456151604
295,-0.0038728846702724,-0.0145734203979373,0.0102713666856289,-0.0005451155011542,0.0042399535886943,-0.0028015642892569
296,-0.0003043724864255,-0.0108329644426703,0.0119391186162829,0.0027990289963781,0.0064515518024563,0.0073372111655771
297,0.0048645595088601,-0.0079392399638891,0.0140069061890244,0.0073201269842684,0.0091074388474226,0.018097834661603
298,0.0050472202710807,-0.0064324489794671,0.0156983304768801,0.010903780348599,0.0091970991343259,0.0213863234966993
299,-0.0001332020328845,-0.0069400402717292,0.0135681368410587,0.0086493296548724,0.0052024410106241,0.0099270464852452
300,-0.0052704461850225,-0.0102119278162718,0.0076182591728866,0.0006183814257383,0.0002301099593751,-0.0123004158958793
301,-0.0079643558710813,-0.015969380736351,0.0033093944657594,-0.0072880471125245,-0.0006597400642931,-0.0337267369031906
302,-0.0085754767060279,-0.0222566816955805,0.005191302858293,-0.0104082021862268,0.0051121483556926,-0.046295240521431
303,-0.0069150300696492,-0.0263275988399982,0.013019728474319,-0.0076846592128276,0.0154515756294131,-0.0472942516207695
304,-0.0038773745764046,-0.0270364321768284,0.0220135468989611,-0.0013322950107976,0.0244994461536407,-0.0385155193507671
305,-0.0015181070193648,-0.0240489766001701,0.026716735213995,0.003715839702636,0.027565348893404,-0.0259198695421219
306,-0.0014533551875501,-0.0167699549347162,0.025190494954586,0.0042631397955119,0.0237106066197157,-0.015977643430233
307,-0.0028665140271186,-0.0072760488837957,0.0195607226341963,0.002946943975985,0.0155119309201837,-0.0094653982669115
308,-0.0023030447773635,-0.0003923215845134,0.0139579074457288,0.004368691239506,0.0085774827748537,-0.0011735365260392
309,0.0005369901773519,0.0007646350422874,0.0110878720879555,0.0093476371839642,0.006901326123625,0.0092647057026624
310,0.001398412277922,-0.0035743035841733,0.0108766760677099,0.0157698895782232,0.0091394335031509,0.0153096355497837
311,-0.0020981186535209,-0.0108065893873572,0.0108376778662205,0.0195174422115088,0.0108759766444564,0.0161151010543108
312,-0.0076495851390063,-0.0176309775561094,0.0082368431612849,0.0168834365904331,0.00928864069283,0.0162809286266565
313,-0.0125178592279553,-0.0240652486681938,0.0024908385239541,0.0089558782055974,0.0043520820327103,0.0150251295417547
314,-0.0158705115318298,-0.0298336241394281,-0.0046674646437168,0.0007175311911851,-0.003324915189296,0.0125067560002208
315,-0.0172138828784227,-0.0302846729755402,-0.0099937068298459,-0.0032176077365875,-0.0122907077893615,0.0157341901212931
316,-0.0157936066389084,-0.0245320983231068,-0.0108278887346387,-0.0011691414983943,-0.0192102417349815,0.0251196660101414
317,-0.011810565367341,-0.0182141419500113,-0.0072052017785608,0.0061184549704194,-0.0214961525052786,0.0315904505550861
318,-0.0081272600218653,-0.016901696100831,-0.0016913684085011,0.0159213338047266,-0.0193181857466698,0.0309338942170143
319,-0.0074460566975176,-0.0222775172442198,0.0013176270294934,0.0237031504511833,-0.0140196364372969,0.0252150446176529
320,-0.0092259738594293,-0.0325422175228596,-0.0013904522638768,0.0258433949202299,-0.0057115778326988,0.0124984411522746
321,-0.0117573859170079,-0.0442492626607418,-0.0072998730465769,0.0218930970877409,0.0061234151944518,-0.0097824558615684
322,-0.0131354425102472,-0.052523173391819,-0.0108913108706474,0.0145638361573219,0.0188809763640165,-0.0339577198028564
323,-0.011025651358068,-0.0529335737228394,-0.0100775929167867,0.0085550555959343,0.0272426679730415,-0.0478609763085842
324,-0.0040003643371164,-0.0465634167194366,-0.0073201297782361,0.0063018924556672,0.0272548496723175,-0.048591248691082
325,0.0060540433041751,-0.0375767908990383,-0.0057050040923059,0.0063853990286588,0.0185321122407913,-0.0419684052467346
326,0.0127774458378553,-0.0277965571731329,-0.0062155565246939,0.0067087979987263,0.0035743645858019,-0.0350108668208122
327,0.0120824109762907,-0.0192983876913786,-0.0096594700589776,0.005627776030451,-0.0133856246247888,-0.0319968685507774
328,0.0083507942035794,-0.0144563997164369,-0.0156710129231215,0.0028535556048154,-0.0252663213759661,-0.0320707373321056
329,0.006189870648086,-0.0120787853375077,-0.0200257170945406,0.0012719330843538,-0.0256524104624987,-0.0303516071289778
330,0.002754830289632,-0.0103673618286848,-0.0188012085855007,0.0041757375001907,-0.0159753989428282,-0.0243627838790417
331,-0.0052504842169582,-0.0096178408712148,-0.0126910451799631,0.0115631558001041,-0.0039916792884469,-0.0159094613045454
332,-0.0169775802642107,-0.0088827665895223,-0.0065074576996266,0.0204806923866272,0.0030048163607716,-0.0038410634733736
333,-0.028431061655283,-0.0060772993601858,-0.0037007892969995,0.0274850632995367,0.003674054518342,0.0151639403775334
334,-0.0335896946489811,-0.0025103059597313,-0.0023641549050808,0.0304688178002834,0.0019823499023914,0.0351718887686729
335,-0.0310186706483364,-0.0020979496184736,-0.0005518771940842,0.0293902866542339,-4.01584220526274e-05,0.0425652861595154
336,-0.0244650933891535,-0.0063374731689691,0.001379314227961,0.0279926173388958,-0.0021646623499691,0.0349897854030132
337,-0.0172560829669237,-0.013216239400208,0.0034002240281552,0.0298317726701498,-0.0022976826876401,0.0251658018678427
338,-0.0109957503154874,-0.0188343189656734,0.0058526215143501,0.0322302207350731,0.0014990699710324,0.0212790779769421
339,-0.0064692618325352,-0.0227594412863255,0.0087964972481131,0.0306098107248545,0.0087506007403135,0.0186893716454506
340,-0.0033972847741097,-0.0291711501777172,0.0105086574330926,0.0259517431259155,0.0158689860254526,0.0131286829710007
341,0.0010679970728233,-0.0370719768106937,0.0095743956044316,0.0230326168239117,0.0196510758250952,0.006160442251712
342,0.0080831740051508,-0.0391887724399567,0.0081751001998782,0.0227459240704775,0.0205523204058409,-0.0011527528986334
343,0.0127723338082433,-0.0344149470329285,0.0080929715186357,0.0210227128118277,0.018797030672431,-0.0077438601292669
344,0.0108771976083517,-0.0302515663206577,0.0077448561787605,0.0151839246973395,0.0133295552805066,-0.0099226189777255
345,0.004087786655873,-0.0315376147627831,0.0056941551156342,0.0070241377688944,0.0048618926666677,-0.0049351579509675
346,-0.0031443522311747,-0.0349489003419876,0.0033138585276901,3.91187722925679e-06,-0.003784101223573,0.0049358252435922
347,-0.0065943142399191,-0.0346552431583405,0.0040798592381179,-0.0028185690753161,-0.0086381062865257,0.015764320269227
348,-0.0053425980731844,-0.0297894570976496,0.0093632992357015,1.4806627177677e-06,-0.0087143378332257,0.0261637177318335
349,-0.0014817328192293,-0.0241624638438225,0.0163007527589798,0.0064521413296461,-0.0068383049219846,0.0357487909495831
350,0.0039074285887181,-0.0201006550341845,0.0221599023789167,0.0125496219843626,-0.0034402110613882,0.044038251042366
351,0.009907579049468,-0.0164323933422565,0.0266222897917032,0.0155697101727128,0.0029431660659611,0.0487546548247337
352,0.0146426549181342,-0.0111906519159675,0.0299872942268848,0.0153189655393362,0.0099345380440354,0.0469270013272762
353,0.0176369529217482,-0.0049840342253446,0.0325044766068459,0.0134189343079925,0.0136528434231877,0.0406985692679882
354,0.0209538415074348,-0.0020614357199519,0.0350651666522026,0.0118141993880272,0.0148260975256562,0.0359708368778229
355,0.0246864166110754,-0.0071324612945318,0.0380963459610939,0.0103322379291058,0.0164815112948418,0.0345860160887241
356,0.0253808554261923,-0.0198356434702873,0.0405472554266453,0.0076657440513372,0.0188451036810875,0.0360928699374199
357,0.0227778051048517,-0.0316095650196075,0.0418622232973576,0.0068678590469062,0.020029254257679,0.0435215011239052
358,0.0189423449337482,-0.0327041335403919,0.0427105911076069,0.0115588149055839,0.0183446183800697,0.054737851023674
359,0.01390684209764,-0.0218683816492558,0.0438162349164486,0.0174521114677191,0.0148738007992506,0.0581726916134357
360,0.0079091638326644,-0.0063981316052377,0.0449764803051949,0.0170185640454292,0.0144002176821232,0.0472948662936687
361,0.0025924721267074,0.0052124080248177,0.0458118319511414,0.0104939956218004,0.0205272138118744,0.0308442208915949
362,0.0016370196826756,0.0088237049058079,0.0478003919124603,0.0055226907134056,0.0298059210181236,0.0233676247298718
363,0.0060175475664436,0.004185271449387,0.0524202957749367,0.0057032657787203,0.0345862805843353,0.0270236115902662
364,0.0103251338005066,-0.0055628959089517,0.0571751222014427,0.0064098807051777,0.0315338112413883,0.0284553393721581
365,0.0112662613391876,-0.0150690097361803,0.0585860572755337,0.0044296220876276,0.0248973518610001,0.0175071433186531
366,0.0101607358083129,-0.0201604161411524,0.0571690946817398,0.0026894616894424,0.0201525837182999,0.0004515079199336
367,0.0082780616357922,-0.0199133437126875,0.0554129183292389,0.0041631567291915,0.0179776344448328,-0.0090281795710325
368,0.0073065366595983,-0.016086008399725,0.0538857951760292,0.008841872215271,0.0158781614154577,-0.0037381558213383
369,0.0090350676327943,-0.0100705036893487,0.0513568185269833,0.0140439458191395,0.0116120669990778,0.0109781082719564
370,0.0139162186533213,-0.0022666936274617,0.0474253296852112,0.0167993064969778,0.0064931851811707,0.0237842835485935
371,0.0212520882487297,0.0055074859410524,0.0429963059723377,0.0179913174360991,0.0045870798639953,0.0309325437992811
372,0.0292008686810732,0.0111494949087501,0.0396667420864105,0.0207491926848888,0.0081781297922134,0.0378736555576324
373,0.0344385206699371,0.0146918250247836,0.0383330211043358,0.0249520055949688,0.0148022202774882,0.047761682420969
374,0.0334630496799946,0.0172619856894016,0.0372254252433777,0.025990504771471,0.0189674235880375,0.054859708994627
375,0.0268180835992098,0.0190973952412605,0.034072071313858,0.0199066773056984,0.0193117633461952,0.0515264347195625
376,0.0197593364864588,0.0199712533503771,0.0294181853532791,0.0102604292333126,0.018843024969101,0.0390384495258331
377,0.0164042580872774,0.0210714545100927,0.0249204151332378,0.0048259147442877,0.0171524900943041,0.0268885884433985
378,0.0172515939921141,0.0242462661117315,0.0204901602119207,0.0047405711375176,0.0117538953199983,0.0199267752468586
379,0.0206421855837107,0.02729631960392,0.0155946910381317,0.0045507797040045,0.0039481855928897,0.0123118190094829
380,0.024075374007225,0.0246299710124731,0.0114465737715364,0.0007717484841123,-0.0022744976449757,-0.0016216629883274
381,0.025911470875144,0.0149919213727117,0.0100386096164584,-0.0051978835836052,-0.0038464805111289,-0.018146924674511
382,0.0244821459054947,0.002689124783501,0.0112348655238748,-0.0103400573134422,-0.0016370877856388,-0.0293585695326328
383,0.0198343023657799,-0.0067797768861055,0.0135774556547403,-0.0123608252033591,0.000895925972145,-0.0302127562463284
384,0.0161144006997347,-0.0100590279325843,0.0170122217386961,-0.0101787615567446,0.0024913870729506,-0.0200963951647282
385,0.0168525688350201,-0.007925827987492,0.0213894005864859,-0.0046286392025649,0.0041247582994401,-0.0034567553084343
386,0.0209113620221615,-0.0030706422403454,0.0251203812658787,0.0018403443973511,0.0056128841824829,0.0115453982725739
387,0.0245105549693108,0.0025991292204707,0.0265780966728926,0.0064039323478937,0.0052952044643461,0.0184127055108547
388,0.0258744489401579,0.0075632375665009,0.0258919298648834,0.0081924842670559,0.0036222655326128,0.0172496605664492
389,0.0261562168598175,0.0108439195901155,0.0249566454440355,0.0084291966632008,0.0033545265905559,0.0130887385457754
390,0.0253333188593388,0.012504193931818,0.0242987424135208,0.0072788479737937,0.0038841583300381,0.0096195293590426
391,0.0230548866093159,0.0137578500434756,0.0234405174851418,0.004392203874886,0.0028320101555436,0.0082410164177417
392,0.0209431480616331,0.0152411162853241,0.0229198336601257,0.0001508850546088,0.0015294012846425,0.0074645564891398
393,0.0192053262144327,0.0167488977313042,0.022799264639616,-0.0046537248417735,0.0017689218511804,0.0034858912695199
394,0.0156190441921353,0.0196005534380674,0.0218014530837536,-0.0084037482738494,0.0014729594113305,0.0007877355092205
395,0.0089517487213015,0.0233691278845072,0.0181500632315874,-0.0113756852224469,-0.0017944944556802,0.0077663352712988
396,0.0009132180712185,0.0245344657450914,0.0126258386299014,-0.0150690833106637,-0.0052239182405173,0.0208750460296869
397,-0.0052314149215817,0.0219945292919874,0.0085015883669257,-0.0182374585419893,-0.0052350559271872,0.0292707197368145
398,-0.0032627847976982,0.0166494082659483,0.0064610638655722,-0.0198102332651615,-0.0029870334547013,0.0240760613232851
399,0.0114770820364356,0.0081735225394368,0.0043474142439663,-0.0213156249374151,-0.0017393045127391,0.0030758909415453
400,0.0300793703645468,-0.003491687355563,0.0002256823208881,-0.0246901512145996,-0.0043489383533597,-0.0248595904558897
401,0.0386219993233681,-0.0159193985164166,-0.0051514036022126,-0.0291370321065187,-0.0100377565249801,-0.0459902696311474
402,0.0354035794734955,-0.0239273197948933,-0.0083246417343616,-0.0307414978742599,-0.0155959706753492,-0.0511909760534763
403,0.0279294028878212,-0.0230640601366758,-0.0079077426344156,-0.0282109770923853,-0.0207848995923996,-0.039544053375721
404,0.021736828610301,-0.0130674028769135,-0.0064208400435745,-0.0245749801397324,-0.02727872133255,-0.0177949629724026
405,0.0164774954319,0.0029397781472653,-0.007200923282653,-0.0235787406563759,-0.0356124192476273,0.0018464657478034
406,0.0104113854467869,0.0203223638236523,-0.0101396990939975,-0.0265101343393326,-0.0431565418839455,0.0091176936402916
407,0.0055659399367868,0.0335178971290588,-0.0113105475902557,-0.0298891942948103,-0.0445565469563007,0.0037523426581174
408,0.0057587372139096,0.0377680361270905,-0.0084783528000116,-0.0297083053737879,-0.0368476286530495,-0.0076907109469175
409,0.011094406247139,0.0315897949039936,-0.0034042901825159,-0.0265710409730673,-0.0225933957844973,-0.0180742088705301
410,0.0173018872737885,0.0176084954291582,0.0010687427129596,-0.0226817298680544,-0.0080864857882261,-0.0225052069872618
411,0.0205978360027075,0.0013788905926048,0.0023454246111214,-0.0199216194450855,0.0005241007311269,-0.0219497010111809
412,0.0214846841990948,-0.0119413984939456,-0.0006469969521276,-0.0203776266425848,0.0017755409935489,-0.0235355813056231
413,0.0225331243127584,-0.0204591229557991,-0.005843807477504,-0.0239913072437048,-0.0010618170490488,-0.0324070416390896
414,0.0244330652058125,-0.0254909042268991,-0.011287241242826,-0.0290805175900459,-0.0045870463363826,-0.0459693074226379
415,0.027613116428256,-0.0278887096792459,-0.017891613766551,-0.0337134264409542,-0.0070168902166187,-0.057433944195509
416,0.0320212133228779,-0.0265742298215628,-0.0269260704517365,-0.0362003929913044,-0.008074396289885,-0.0605591088533401
417,0.034396156668663,-0.0217262469232082,-0.0363896638154984,-0.037003431469202,-0.0082068396732211,-0.0544436126947403
418,0.0313480831682682,-0.0155241545289755,-0.042426522821188,-0.0375313498079777,-0.0084598241373896,-0.0448927655816078
419,0.0232355389744043,-0.010141983628273,-0.0445792302489281,-0.0376846492290497,-0.0113674523308873,-0.0385197289288044
420,0.0139201348647475,-0.0059160711243748,-0.0448290631175041,-0.0362056232988834,-0.0175207573920488,-0.0373787470161915
421,0.0067788581363856,-0.0021443057339638,-0.0439068824052811,-0.0322416089475155,-0.0227430108934641,-0.0392178259789944
422,0.0015509104123339,0.000808285025414,-0.0420344434678555,-0.0265877954661846,-0.0224298890680075,-0.0397511720657349
423,-0.0032437432091683,0.0026700794696807,-0.0399946682155132,-0.0209937021136284,-0.0173229668289423,-0.0357380881905556
424,-0.0072034723125398,0.0048518902622163,-0.0387915000319481,-0.0157431904226542,-0.012227077037096,-0.0260045658797026
425,-0.0100839743390679,0.0081961406394839,-0.0397255681455135,-0.0101279439404607,-0.0122617799788713,-0.010925424285233
426,-0.0126755479723215,0.0112977577373385,-0.0436396338045597,-0.0056959828361868,-0.0199298188090324,0.0059121311642229
427,-0.0141195273026824,0.0124269425868988,-0.0492431633174419,-0.0054366863332688,-0.0321001224219799,0.0180580634623766
428,-0.0124035952612758,0.010334282182157,-0.053589541465044,-0.0097194500267505,-0.0418928489089012,0.017877422273159
429,-0.0069828103296458,0.0047490093857049,-0.0548789575695992,-0.0160135067999363,-0.0442030057311058,0.0023313951678574
430,0.0001400909532094,-0.0023587853647768,-0.0544695816934109,-0.0216187592595816,-0.0397366285324097,-0.0199580229818821
431,0.0065577765926718,-0.0083388686180114,-0.0549122169613838,-0.0253423321992159,-0.0326702743768692,-0.0358077883720398
432,0.0110536739230156,-0.0123885413631797,-0.0571958646178246,-0.0281648859381676,-0.025261040776968,-0.0417516492307186
433,0.0130398841574788,-0.0149392746388912,-0.0598273016512394,-0.030724074691534,-0.0166974477469921,-0.0434306040406227
434,0.0129668256267905,-0.0163386389613152,-0.0613410584628582,-0.0318476557731628,-0.0079568997025489,-0.0454363115131855
435,0.0113584361970425,-0.0172475762665272,-0.0636122301220894,-0.0318033769726753,-0.0042815483175218,-0.0485353879630566
436,0.0082840966060757,-0.0175874456763268,-0.0687926337122917,-0.032133724540472,-0.0090600112453103,-0.0503411330282688
437,0.0045457771047949,-0.0153480786830187,-0.0756735950708389,-0.0330271832644939,-0.02038399502635,-0.0478874929249287
438,0.0002930932387243,-0.0101929260417819,-0.0821692571043968,-0.0348887778818607,-0.0341136604547501,-0.0426859520375729
439,-0.0059079681523144,-0.0056456942111253,-0.0878822058439255,-0.0385191589593887,-0.0468443222343922,-0.0379646010696888
440,-0.0131030073389411,-0.0042389924637973,-0.0913503468036652,-0.0411418750882149,-0.0553642027080059,-0.0334453396499157
441,-0.0165377706289291,-0.0053619109094142,-0.0895469784736633,-0.0389983914792538,-0.0559349246323109,-0.0285716205835342
442,-0.0133717469871044,-0.0077730761840939,-0.0824766382575035,-0.0326403044164181,-0.0480894520878792,-0.0240353643894196
443,-0.0063103875145316,-0.0111019918695092,-0.0740429311990738,-0.0251825489103794,-0.0360876768827438,-0.0202032886445522
444,0.0006793013308197,-0.015802338719368,-0.0685390010476112,-0.0194567106664181,-0.0252923425287008,-0.0179004278033972
445,0.0064309407025575,-0.0212759748101234,-0.0681200847029686,-0.0165933202952147,-0.019803524017334,-0.0163861103355885
446,0.0099414624273777,-0.0255317389965057,-0.0721683651208878,-0.0164372138679028,-0.0210883636027575,-0.0151432901620865
447,0.0091799525544047,-0.0264116264879704,-0.0775064006447792,-0.0176345277577639,-0.02681072242558,-0.0154497539624572
448,0.0037236015778034,-0.0230685528367758,-0.0807104557752609,-0.0179779306054115,-0.0327006131410599,-0.0167541410773993
449,-0.0046340627595782,-0.0175932347774506,-0.0809544622898102,-0.0176686272025108,-0.0358868166804314,-0.0185591634362936
450,-0.0132594397291541,-0.0133693227544427,-0.0800322666764259,-0.0189965162426233,-0.0362394787371159,-0.0227559413760901
451,-0.0199117921292782,-0.0118764182552695,-0.0802409127354622,-0.0227151811122894,-0.0351188592612743,-0.029917448759079
452,-0.0240528210997581,-0.0130827929824591,-0.0828661620616913,-0.0273990463465452,-0.0346475504338741,-0.0370610691606998
453,-0.0265332702547312,-0.0168127603828907,-0.0875157862901688,-0.0314201377332211,-0.0362496338784695,-0.0415331348776817
454,-0.0263794846832752,-0.0220211707055569,-0.0912244021892548,-0.0330643206834793,-0.0371902734041214,-0.0428617745637894
455,-0.0224288906902075,-0.0274522621184587,-0.0916177332401276,-0.0314664579927921,-0.0337023548781872,-0.0410075150430202
456,-0.0171324331313372,-0.0324325561523438,-0.0903605669736862,-0.0287529993802309,-0.0263777039945126,-0.036980327218771
457,-0.0136216608807445,-0.0355349071323872,-0.0901564359664917,-0.0275504309684038,-0.0197480767965317,-0.032487791031599
458,-0.0122927548363805,-0.0347987599670887,-0.0912920907139778,-0.0271644052118063,-0.0188873056322336,-0.0274525731801987
459,-0.0111668882891536,-0.0297024510800838,-0.0916336327791214,-0.0252170730382204,-0.0244072880595922,-0.0210254527628422
460,-0.0083997240290045,-0.022485014051199,-0.0892563611268997,-0.0226642228662968,-0.0318715460598469,-0.0166619513183832
461,-0.0038887492846697,-0.0163242500275373,-0.0841890946030617,-0.0214365683495998,-0.0365546867251396,-0.0190507676452398
462,0.0014596485998481,-0.0129199670627713,-0.0779238641262054,-0.0199061334133148,-0.0372374653816223,-0.0267633367329836
463,0.0061555383726954,-0.0131315086036921,-0.0726832449436188,-0.0173723120242357,-0.0363800525665283,-0.0346270464360714
464,0.0093211093917489,-0.0155725125223398,-0.0693916976451874,-0.016224455088377,-0.0350766256451607,-0.0379236117005348
465,0.0115963965654373,-0.0163788162171841,-0.0670885071158409,-0.0171589516103268,-0.0300800576806068,-0.0352169536054134
466,0.0127328690141439,-0.0136964982375503,-0.0651776418089867,-0.018006345257163,-0.0205183010548353,-0.0277835857123137
467,0.010295482352376,-0.0093453573063015,-0.0640599578619003,-0.0174586661159992,-0.0116663007065654,-0.0161961149424315
468,0.0038520232774317,-0.0066122440621256,-0.064114585518837,-0.0163488071411848,-0.0084963226690888,-0.0025918057654053
469,-0.003594811540097,-0.0084165139123797,-0.0660464242100716,-0.0154695464298129,-0.0123923383653164,0.0069228708744049
470,-0.007868125103414,-0.0141863655298948,-0.0696195811033249,-0.0142008159309626,-0.0217476654797792,0.0068290089257061
471,-0.0048322477377951,-0.0193015560507774,-0.0728393271565437,-0.0123057598248124,-0.0316505245864391,-0.0023561904672533
472,0.0056675365194678,-0.0206972025334835,-0.0747465267777443,-0.0111312018707395,-0.0372899994254112,-0.016205282881856
473,0.0175932198762894,-0.0187117531895638,-0.0761410668492317,-0.0111705986782908,-0.0379335731267929,-0.0302431602030993
474,0.0224677510559559,-0.0147091001272202,-0.0779698118567467,-0.0124202948063612,-0.0362221226096153,-0.0412465967237949
475,0.0173655580729246,-0.0096263848245143,-0.0793950334191322,-0.0149202179163694,-0.0339715741574764,-0.0480712428689003
476,0.0087144831195473,-0.003523172577843,-0.0791778415441513,-0.017229812219739,-0.0311009734869003,-0.0508163385093212
477,0.0035725201014429,0.0025133229792118,-0.0792593434453011,-0.0186302121728659,-0.0288708992302418,-0.0502770952880383
478,0.0019646973814815,0.006490561645478,-0.0805152505636215,-0.0193063579499722,-0.0289346743375063,-0.0470531769096851
479,0.000835234823171,0.0082505699247121,-0.0795678198337555,-0.0179319903254509,-0.0297753289341927,-0.0394397675991058
480,-0.0018438729457557,0.0084868073463439,-0.0757459923624992,-0.0143446046859026,-0.0295823700726032,-0.0263560116291046
481,-0.0074864216148853,0.0066161011345684,-0.0727040395140648,-0.0117658972740173,-0.0297176167368889,-0.0126539636403322
482,-0.0147283859550953,0.003197323763743,-0.0715157762169838,-0.0124745173379779,-0.0301465634256601,-0.004641281440854
483,-0.0188521575182676,0.0011207979405298,-0.0696211606264114,-0.0147231789305806,-0.0282034296542406,-0.002871204400435
484,-0.017033776268363,0.0030544693581759,-0.0650833994150162,-0.0152028314769268,-0.0238471832126379,-0.0038923979736864
485,-0.0113528808578849,0.0091286422684788,-0.058894444257021,-0.0126842679455876,-0.0197628419846296,-0.0054492293857038
486,-0.0058064246550202,0.016649043187499,-0.0535564795136452,-0.0081995166838169,-0.0178163349628448,-0.0065362295135855
487,-0.0028483604546636,0.021892324090004,-0.0502372272312641,-0.0034205287229269,-0.017576003447175,-0.0056700534187257
488,-0.0031327784527093,0.0223451294004917,-0.0485816150903702,-9.29612360778265e-05,-0.0173478443175554,-0.0029418475460261
489,-0.0059571294113993,0.0186564475297928,-0.0477225817739964,0.0015342416008934,-0.0162947606295347,-0.0001114309634431
490,-0.0100638642907143,0.0129144815728068,-0.0474540255963802,0.0019584922119975,-0.0149584412574768,0.0007152399048209
491,-0.0137544274330139,0.0065265605226159,-0.0479794330894947,0.000973897811491,-0.0137268854305148,-0.0005702123744413
492,-0.0143920499831438,0.0014348735567182,-0.0482582859694958,-0.0007480813656002,-0.0123440604656935,0.0001264306338271
493,-0.0111710270866752,-0.0009818639373406,-0.0472797974944115,-0.0019908896647393,-0.0110451271757483,0.0044253594242036
494,-0.0065158256329596,-0.0016539572970941,-0.0458303950726986,-0.0025662111584097,-0.0104653434827924,0.0074863610789179
495,-0.002203737385571,-0.0011293706484139,-0.0443041361868382,-0.0020971323829144,-0.0095304911956191,0.0059239361435174
496,0.0018911755178123,0.0014722812920808,-0.0418114811182022,-0.0001669153716648,-0.0057057300582528,0.0011921185068786
497,0.0050409901887178,0.0057436865754425,-0.0390641838312149,0.0014473762130364,0.000683480000589,-0.0041394717991352
498,0.0061217527836561,0.0101684918627143,-0.0376783087849617,0.0009311909670941,0.0060518928803503,-0.0076675759628415
499,0.0064731314778327,0.0140908546745777,-0.0373212173581123,-0.0005400750087574,0.0082422057166695,-0.0077346768230199
500,0.0080515351146459,0.0168315954506397,-0.0370077006518841,-0.0012080497108399,0.0075104511342942,-0.0053840507753193
501,0.0104892952367663,0.0171838216483593,-0.0362940616905689,-0.0005518064135685,0.0054326280951499,-0.0032482706010341
502,0.013212077319622,0.0152324670925736,-0.0345827601850033,0.0019274404039606,0.0048142941668629,-0.0018443309236317
503,0.0152907129377127,0.0129141062498093,-0.0324652418494225,0.005964423995465,0.0060708634555339,0.0016565035330131
504,0.0141145577654243,0.0130355833098292,-0.0319023132324219,0.00963921751827,0.0061375307850539,0.0106031512841582
505,0.0089674983173608,0.017769817262888,-0.032857034355402,0.0117244720458984,0.0037007699720561,0.0226519964635372
506,0.0031805117614567,0.0262987203896046,-0.03272420540452,0.0131376869976521,0.0007461487548425,0.0305559039115906
507,-0.0004648134927265,0.0331697650253773,-0.0305151771754026,0.0142386546358466,-0.0014149089111015,0.0303866416215897
508,-0.003018393414095,0.0331494882702827,-0.0280894823372364,0.0138309681788087,-0.0036990370135754,0.0241381488740444
509,-0.0049499487504363,0.0271183531731367,-0.0265567228198051,0.0120138023048639,-0.0061827646568417,0.0152388131245971
510,-0.0044431281276047,0.0200641974806786,-0.0245861876755953,0.0112506607547402,-0.0065822242759168,0.0059646605513989
511,-0.0012963503831997,0.0152997961267829,-0.0211856290698051,0.0127484984695911,-0.002946054097265,-0.0020308909006416
512,0.0032524152193218,0.0123952990397811,-0.0179392900317907,0.014419955201447,0.0035836559254676,-0.0078568300232291
513,0.008759063668549,0.0113751022145152,-0.0165137331932783,0.0151356365531683,0.0083753364160656,-0.0089841550216078
514,0.0139149967581034,0.0131495594978333,-0.0157504174858332,0.0160388089716434,0.0075717638246715,-0.0041372855193913
515,0.016629146412015,0.0166057795286179,-0.013612249866128,0.0173185262829065,0.0027636005543172,0.0020821045618504
516,0.015983521938324,0.0202504135668278,-0.0104471705853939,0.0180625952780247,-0.0019795438274741,0.0061843884177506
517,0.0123323136940598,0.0231764148920774,-0.0082649355754256,0.017048817127943,-0.0047557679936289,0.0087267877534031
518,0.0073500801809132,0.0239315368235111,-0.0077970675192773,0.0132826110348105,-0.0056484751403331,0.008566946722567
519,0.0028162845410406,0.0215661749243736,-0.0077003394253552,0.0078858463093638,-0.0049344473518431,0.0046991962008178
520,-0.0001445835223421,0.0176965203136206,-0.0059290374629199,0.0040543233044445,-0.0013993285829201,-8.38104679132812e-05
521,-0.0026515217032283,0.0137716289609671,-0.0025808627251535,0.0030602985061705,0.005620795302093,-0.0031349824275821
522,-0.0073837414383888,0.0099054267629981,0.0001680685818428,0.0036632891278713,0.0133720133453608,-0.0033747483976185
523,-0.0138039058074355,0.0078658638522028,0.0008955927914939,0.0050499127246439,0.0164816305041313,2.88996470771963e-05
524,-0.0179342906922102,0.0103968512266874,-0.0003343090065754,0.006694249343127,0.0111266737803817,0.0062202797271311
525,-0.0159087385982275,0.0183390490710735,-0.0018030601786449,0.0084861051291227,0.0001818188029574,0.01350037753582
526,-0.0077375927940011,0.0283844117075205,-0.0015538239385932,0.0107714422047138,-0.0102237928658724,0.0201772451400757
527,0.0020134968217462,0.0346396341919899,0.0004831542901229,0.012508824467659,-0.0171467438340187,0.023347744718194
528,0.0086231436580419,0.0338517278432846,0.0030086692422628,0.0120232654735446,-0.0202277563512325,0.0203838087618351
529,0.0112726036459208,0.0285730939358473,0.0051055517978966,0.0100108170881867,-0.0198418479412794,0.0122723150998354
530,0.010970720089972,0.0234845653176308,0.0058344323188066,0.0080857081338763,-0.0188008081167936,0.003470730734989
531,0.0088853817433118,0.0202961470931768,0.0048267492093145,0.0061692954041063,-0.0204803198575974,-0.0021970844827592
532,0.0077307098545134,0.0189524572342634,0.0037230474408716,0.0040888679213821,-0.0241737328469753,-0.0034107088577002
533,0.0084184072911739,0.0185277108103037,0.0033905103337019,0.0016529549611732,-0.0279198363423347,-0.0010343027533963
534,0.0090414648875594,0.0168311558663845,0.0030371986795216,-0.0021476694382727,-0.0314338244497776,0.0019712646026164
535,0.008180976845324,0.0133284470066428,0.0022042212076485,-0.0068553746677935,-0.0347552448511124,0.002638102741912
536,0.0056900610215961,0.0095277270302176,0.0013702113647013,-0.009725940413773,-0.0376374647021294,-0.0001072273880708
537,0.0026331136468797,0.0064361891709268,0.0017201757291331,-0.0095213120803237,-0.0390312112867832,-0.004800571128726
538,-0.0003210658323951,0.005138034466654,0.0030861878767609,-0.0081807421520352,-0.0387417152523994,-0.0091617153957486
539,-0.0033049753401428,0.0068287858739495,0.0040900479070842,-0.007174854632467,-0.0376940555870533,-0.0131756355985999
540,-0.0060435705818235,0.0094969328492879,0.004115174524486,-0.0067147715017199,-0.0368054397404194,-0.0174183826893568
541,-0.008435184136033,0.0091751758009195,0.0027009998448193,-0.0071908859536051,-0.0372863337397575,-0.0197808016091585
542,-0.0101266829296947,0.004423885140568,0.0003373159852344,-0.0086834011599421,-0.0380891337990761,-0.0195386614650488
543,-0.0105060189962387,-0.0026304111815989,-0.0011114449007436,-0.0108028938993812,-0.0368686281144619,-0.019397122785449
544,-0.00986841134727,-0.0087733455002307,-0.0013395954156294,-0.0126759661361575,-0.0346034914255142,-0.0192488543689251
545,-0.0083819795399904,-0.0129385776817799,-0.0013726390898227,-0.0135195767506957,-0.033250842243433,-0.0178773198276758
546,-0.0049070981331169,-0.0157916247844696,-0.0012759395176544,-0.0135606527328491,-0.0327398180961609,-0.0172291845083237
547,0.0013412528205663,-0.0172402653843164,-0.0002577911072876,-0.0131891909986734,-0.0317126326262951,-0.0173699371516705
548,0.008378910832107,-0.0163347758352757,0.002483986550942,-0.0122072082012892,-0.0285778120160103,-0.0161027926951647
549,0.0130885662510991,-0.0129762245342135,0.0061408230103552,-0.0104773975908756,-0.0239617582410574,-0.0143299093469977
550,0.0144226178526878,-0.0088682742789387,0.0081428969278931,-0.0085260374471545,-0.0200386792421341,-0.0143689271062613
551,0.0127607034519315,-0.0063976841047406,0.0072380164638161,-0.0071214032359421,-0.0180235430598259,-0.0152257196605206
552,0.0098379915580153,-0.00560156814754,0.0050332034006714,-0.0057998294942081,-0.0176068935543299,-0.014204328879714
553,0.0078393407166004,-0.0047900378704071,0.0030110322404652,-0.0039608175866305,-0.0176155101507902,-0.0124384658411145
554,0.0069799944758415,-0.0033517132978886,0.0009127400116994,-0.0020392215810716,-0.0174580793827772,-0.012619954533875
555,0.0066884164698422,-0.0009980197064578,-0.0012838263064622,-8.53112869663164e-05,-0.0173146221786737,-0.0132720321416855
556,0.0069175860844552,0.0020073871128261,-0.0026453742757439,0.0018188593676313,-0.0171175468713045,-0.0122204702347517
557,0.0081118047237396,0.0043541989289224,-0.0024684357922524,0.0032468200661242,-0.016534311696887,-0.0095845684409141
558,0.0106437671929598,0.0056362538598477,-0.0009198265033774,0.0042552119120955,-0.0152356214821339,-0.006126154679805
559,0.0139333680272102,0.0061919763684272,0.0012157432502135,0.0048542427830398,-0.012798055075109,-0.0038309174124151
560,0.0163054261356592,0.0061306077986955,0.0022921285126358,0.0042878063395619,-0.0107403639703989,-0.0041539492085576
561,0.0165188424289227,0.0060647623613476,0.0011100785341113,0.0023334228899329,-0.0114401830360293,-0.004688061773777
562,0.0150508917868137,0.0062752729281783,-0.001898210030049,0.0004327301576267,-0.0153489196673036,-0.0012186936801299
563,0.0133902244269848,0.0059282155707478,-0.0054276180453598,-6.67510466882959e-05,-0.0212340876460075,0.0062340879812836
564,0.012679910287261,0.0042679067701101,-0.0079424725845456,0.000462245021481,-0.0262155383825302,0.0123050352558494
565,0.0126252034679055,0.0012134690769016,-0.0093874409794807,0.0004341661697253,-0.0280399359762669,0.0125508019700646
566,0.0126535817980766,-0.0020352897699922,-0.0108681106939912,-0.0010151708265766,-0.0268076509237289,0.008107790723443
567,0.0128753175958991,-0.0030838905368,-0.0123354587703943,-0.003121888032183,-0.0236373972147703,0.0037112166173756
568,0.0123635530471802,-0.0021762729156762,-0.0142389517277479,-0.0060097738169133,-0.0205983817577362,0.0007813033298589
569,0.009387819096446,-0.0030908000189811,-0.0181959439069033,-0.0105348192155361,-0.0199593305587769,-0.0035188745241612
570,0.0047851484268903,-0.0072965547442436,-0.0231858436018229,-0.0150548256933689,-0.0208699405193329,-0.0094482712447643
571,0.0015032540541142,-0.0121317217126489,-0.0259064864367247,-0.0169970169663429,-0.0199324917048216,-0.0126641374081373
572,-0.0002155511028831,-0.0161397755146027,-0.0258458461612463,-0.0162997525185347,-0.0171537883579731,-0.0102156605571508
573,-0.0019955481402576,-0.0207268781960011,-0.0249739624559879,-0.0146951889619231,-0.0155522273853421,-0.0056613013148307
574,-0.0037467144429683,-0.0264162477105856,-0.0242401566356421,-0.0135903535410762,-0.0156257264316082,-0.0049999738112092
575,-0.004731064196676,-0.0317564308643341,-0.0244315210729837,-0.0143523253500462,-0.0156316049396992,-0.0100162178277969
576,-0.0048022684641182,-0.0351611860096455,-0.0262575075030327,-0.0177127774804831,-0.0141171142458916,-0.0177200511097908
577,-0.0039454619400203,-0.0360538400709629,-0.0282515082508326,-0.0223983898758888,-0.0105584673583508,-0.024061793461442
578,-0.0020210463553667,-0.0344239175319672,-0.0276835076510906,-0.025853717699647,-0.0057352068834006,-0.025811854749918
579,0.0002613647084217,-0.0316084809601307,-0.0231530405580997,-0.0263297893106937,-0.0011156824184581,-0.0220995806157589
580,0.0018066510092467,-0.0294854398816824,-0.0156538654118776,-0.0241631772369146,0.0020920024253428,-0.0153450313955545
581,0.0021682900842279,-0.0279662515968084,-0.0083857234567403,-0.0212117992341518,0.0026314263232052,-0.0076682949438691
582,0.0012423527659848,-0.0265845730900764,-0.0041326461359858,-0.0195560082793236,0.0004396158910822,-0.0002756968315225
583,-0.0008313882863149,-0.0253415666520596,-0.0037266728468239,-0.0202669277787209,-0.0033736259210854,0.0038427105173468
584,-0.0031295157968998,-0.0232328027486801,-0.0061354921199381,-0.0223208852112293,-0.0076189790852367,0.0025022360496223
585,-0.0040961080230772,-0.0194521620869637,-0.0089616142213344,-0.0237552709877491,-0.0105031346902251,-0.0021780808456242
586,-0.0033796429634094,-0.0147220799699426,-0.0116268703714013,-0.0245843511074781,-0.0107113271951675,-0.0062208161689341
587,-0.0014912053011357,-0.0092745246365666,-0.0143853407353163,-0.0250900201499462,-0.008116303011775,-0.0055169044062495
588,0.0009437112021259,-0.0028196554630994,-0.0165403205901384,-0.0237056780606508,-0.0049059791490435,0.0016950106946751
589,0.0025827672798186,0.0033634805586189,-0.0179777909070253,-0.0197011344134808,-0.0045137587003409,0.0098038772121071
590,0.0025619675870984,0.0074361232109367,-0.0187361054122448,-0.014479024335742,-0.0077203274704515,0.0129509335383773
591,0.0010645617730915,0.0078393155708909,-0.0192364268004894,-0.0106687340885401,-0.0126668307930231,0.0121130300685763
592,-0.0016072858124971,0.0040788603946566,-0.0197326354682446,-0.0102099385112524,-0.0164568610489368,0.0091554252430796
593,-0.0050474349409341,-0.0022717332467436,-0.0191747583448887,-0.0128502789884806,-0.0174303464591503,0.003424156922847
594,-0.0080948304384946,-0.0090200202539563,-0.0172794871032238,-0.017392011359334,-0.0164267607033253,-0.0059404596686363
595,-0.0091298148036003,-0.0145317735150456,-0.0146116521209478,-0.0218547824770212,-0.0147992642596364,-0.0170726981014013
596,-0.0088332584127783,-0.0190408397465944,-0.0117131462320685,-0.02501530200243,-0.0139595400542021,-0.026852423325181
597,-0.0098297270014882,-0.0242155138403177,-0.0094622187316417,-0.0286514312028885,-0.0141951581463218,-0.03448236733675
598,-0.0120756793767214,-0.0300284828990698,-0.0073847463354468,-0.0332462303340435,-0.0134983314201236,-0.0401348620653152
599,-0.0130977993831038,-0.0346109494566917,-0.0040610576979816,-0.0354314967989922,-0.0105042634531856,-0.0427541024982929
600,-0.0118145421147347,-0.0361271686851978,-0.0002507260360289,-0.0329950787127018,-0.006543465424329,-0.0399227999150753
601,-0.0091211022809147,-0.0336487591266632,0.0017615978140384,-0.0277512203902006,-0.0035398609470576,-0.0302188936620951
602,-0.0058916197158396,-0.0269846972078085,0.0013784794136881,-0.0223065204918385,-0.0020341894123703,-0.0154723329469562
603,-0.0030423323623836,-0.0180071201175451,-0.0009219039347954,-0.0181231386959553,-0.0024989200755953,-0.0001923499658005
604,-0.0022509736008942,-0.0118346270173788,-0.0050473874434828,-0.0165101680904627,-0.0051218848675489,0.0097031584009528
605,-0.0034307362511754,-0.0112534090876579,-0.0098227793350815,-0.0174539182335138,-0.00762435561046,0.012314478866756
606,-0.0039790710434317,-0.0137974638491869,-0.0134802283719182,-0.019575571641326,-0.0075172944925725,0.0122548369690776
607,-0.0010926144896075,-0.015682615339756,-0.0153383808210492,-0.0212642252445221,-0.0054268562234938,0.0138646932318807
608,0.0051134810782969,-0.0145139591768384,-0.0155946314334869,-0.0211089197546244,-0.0038347323425114,0.0155931580811739
609,0.010675210505724,-0.0093502402305603,-0.0141938915476203,-0.0185071341693401,-0.0040272483602166,0.0139589300379157
610,0.0122096072882414,-0.000911399256438,-0.0117302164435387,-0.0142283607274294,-0.0052964696660637,0.009483803063631
611,0.0106226233765483,0.0069873337633907,-0.0102042146027088,-0.0105247916653752,-0.0060026873834431,0.0039619454182684
612,0.0095672355964779,0.010722273029387,-0.0095712905749678,-0.0080378223210573,-0.0045656836591661,0.0012375435326248
613,0.011218192987144,0.0108440136536956,-0.0078272484242916,-0.0050998316146433,-0.0006057911086827,0.0061002364382147
614,0.0143557200208306,0.0093088820576667,-0.0053676310926675,-0.0015070573426783,0.0037093756254762,0.0149172218516469
615,0.0169501788914204,0.0060178306885063,-0.0043724365532398,0.0009532371186651,0.0063067874871194,0.019783366471529
616,0.0189467389136553,0.0005254137213341,-0.0051083778962492,0.0014368228148669,0.0091320984065532,0.0188278742134571
617,0.0201977454125881,-0.0064073097892105,-0.0066194273531436,0.0002987129264511,0.0126653779298067,0.0150090223178267
618,0.0196339096873999,-0.0126740606501698,-0.0080380486324429,-0.0016067465767264,0.0136742442846298,0.0109751224517822
619,0.0179130621254444,-0.0153775811195374,-0.0081530893221497,-0.0031625188421458,0.012650677934289,0.0066220369189977
620,0.0163282733410597,-0.0143944136798382,-0.0065753823146224,-0.0044504492543637,0.0129451723769307,-0.0003803772269748
621,0.0151207214221358,-0.0115509806200862,-0.0038475291803479,-0.0050780880264937,0.0141306463629007,-0.009335340000689
622,0.0144598055630922,-0.0067934668622911,-0.0013200850225985,-0.0036021848209202,0.0125057958066463,-0.0146461939439178
623,0.0144642433151603,0.0006672866875305,-0.001154767582193,-0.0010166649008169,0.0062011475674808,-0.0124833583831787
624,0.0139957088977098,0.0092392843216657,-0.0039878012612462,0.0001569979795021,-0.0035898452624678,-0.0039783334359526
625,0.0122136557474732,0.0144222192466259,-0.0076905032619833,-0.0002075724623864,-0.0133496103808284,0.0083420649170875
626,0.010457337833941,0.0134875159710646,-0.0097518283873796,-0.000544529990293,-0.0187202300876379,0.0217516161501408
627,0.0100763933733106,0.0085722645744681,-0.0095877656713128,-0.0001283168821828,-0.0192412156611681,0.0308651309460402
628,0.0111528178676963,0.0029741027392447,-0.0081523116677999,0.0010697008110582,-0.0179351400583982,0.031370721757412
629,0.0140206487849355,-0.0018181196646764,-0.0064023029990494,0.0034449198283255,-0.0159591902047396,0.0272276718169451
630,0.0194567926228046,-0.0047891288995742,-0.0041364952921867,0.0078195296227932,-0.0120863569900393,0.0252444911748171
631,0.0269673727452755,-0.0047684051096439,-0.0010727194603532,0.0130823273211718,-0.0057805101387202,0.0253709014505148
632,0.034334309399128,-0.0027834763750433,0.0018843264551833,0.0157728288322687,0.001906280289404,0.024008946493268
633,0.0389577560126781,-0.0007350634550675,0.0037435367703437,0.0144761074334383,0.0089492499828338,0.0205751191824675
634,0.0395692028105259,0.0015473244711756,0.0040450943633914,0.010928763076663,0.0133710354566574,0.0145886084064841
635,0.0368956625461578,0.0037313983775675,0.0026217000558972,0.00677867885679,0.0146274380385876,0.0035083559341728
636,0.032122902572155,0.0036150768864899,0.0001511676528025,0.0031492919661104,0.012441536411643,-0.0111537389457226
637,0.0263306181877851,0.0010298038832843,-0.001965711126104,0.0016770387301221,0.0065267300233244,-0.0217905323952436
638,0.0215789806097746,-0.0014588362537324,-0.0026128890458494,0.0034908880479633,-0.0005356663023121,-0.0217879582196474
639,0.0197671223431826,-0.0030949935317039,-0.0010834424756467,0.0079809054732322,-0.0045637874864041,-0.0107977800071239
640,0.0206510927528143,-0.0049297385849058,0.0024726551491767,0.012531247921288,-0.0045160097070038,0.0062576928175985
641,0.0229120589792728,-0.005664643831551,0.0069317547604441,0.0156195936724544,-0.0025903233326971,0.0232311468571424
642,0.0250550992786884,-0.0031592713203281,0.010411411523819,0.018468115478754,-0.0022791479714214,0.0340941362082958
643,0.0250396896153688,0.001611063722521,0.0109749883413315,0.0205233134329319,-0.0060630552470684,0.0339544042944908
644,0.0230197887867689,0.0054839802905917,0.0103785106912255,0.0204339288175106,-0.0107731018215418,0.0263396725058556
645,0.0221627112478018,0.0069584571756422,0.0130475126206875,0.0204272102564573,-0.0098958332091569,0.0227122195065022
646,0.0246340576559305,0.0085829189047217,0.0197821725159884,0.0233595930039883,-0.0013218581443652,0.0312099065631628
647,0.0286861918866634,0.014249007217586,0.0272385608404875,0.0298279710114002,0.0105996709316969,0.0496526323258877
648,0.0301670990884304,0.0222123842686415,0.0325550362467766,0.0389704182744026,0.0197804737836123,0.065258726477623
649,0.0280700027942657,0.0251644868403673,0.0345112234354019,0.047114547342062,0.0234969016164541,0.066167950630188
650,0.0255835652351379,0.0197826735675335,0.031749501824379,0.0476300418376923,0.0227062162011862,0.0550675466656685
651,0.0237845461815596,0.0113928774371743,0.0249746106564999,0.0387486889958382,0.019224401563406,0.0461809821426868
652,0.0200638938695192,0.0078708175569772,0.0179056879132986,0.0278059653937817,0.0134247047826648,0.0503014922142029
653,0.0130286095663905,0.0096012596040964,0.0130663709715009,0.0210324432700872,0.0053005078807473,0.0586081221699715
654,0.005046188365668,0.008588527329266,0.0103484438732266,0.0169449411332607,-0.0032072353642433,0.0512919537723064
655,0.000601869483944,0.0010040389606729,0.0096444254741072,0.0127556780353189,-0.0089684380218386,0.026577552780509
656,0.0027248999103903,-0.0077823926694691,0.0125433700159192,0.0099853547289967,-0.0097783571109175,0.0024726779665797
657,0.0095353443175554,-0.0156060308218002,0.0194470025599003,0.012317524291575,-0.0055049527436494,-0.0094022881239652
658,0.0155940009281039,-0.0261199679225683,0.0265315975993872,0.0195156652480364,0.0012303591938689,-0.0165198538452387
659,0.0184815414249897,-0.0381426028907299,0.0292897410690784,0.0248282793909311,0.0075907907448709,-0.0293769780546427
660,0.0203698370605707,-0.0466986261308193,0.0265640988945961,0.0211773309856653,0.0126953525468707,-0.0453245379030705
661,0.0236635319888592,-0.0487794205546379,0.0209692697972059,0.010288585908711,0.0168980732560158,-0.0545779094099998
662,0.0285869762301445,-0.0436165928840637,0.0171133000403643,-0.000467878562631,0.0212309211492538,-0.0533604063093662
663,0.0332922302186489,-0.0325365103781223,0.0172598976641893,-0.0070087811909616,0.0256101731210947,-0.0448729805648327
664,0.0351945757865906,-0.0197079982608557,0.0191952586174011,-0.009234863333404,0.0276988707482815,-0.0317479036748409
665,0.0337722860276699,-0.0106284813955426,0.0202009715139866,-0.0081331105902791,0.0264666546136141,-0.0157545153051615
666,0.03147142380476,-0.0074781342409551,0.0207828041166067,-0.0044033201411366,0.0250150337815285,-0.0022431020624935
667,0.0308283530175686,-0.0085028586909174,0.0232593957334757,0.0015574388671666,0.0265320707112551,0.0046933656558394
668,0.0308921113610268,-0.0113348290324211,0.0274568405002356,0.0082635637372732,0.0292351767420769,0.0067353746853768
669,0.0291698016226292,-0.0139640364795923,0.030157582834363,0.0137618174776435,0.0290681067854166,0.0081069180741906
670,0.0262117590755224,-0.0142821269109845,0.0300102978944778,0.0179616790264845,0.0258139614015818,0.0133258271962404
671,0.0237444080412388,-0.0117981741204858,0.0285196285694838,0.0208021774888039,0.0220862198621035,0.022905919700861
672,0.0218068324029446,-0.0081137167289853,0.0268998071551323,0.0213770568370819,0.0187739133834839,0.0314296372234821
673,0.0191323775798082,-0.0050373580306768,0.0242249555885792,0.0193762984126806,0.0143353594467044,0.0333244167268276
674,0.0152464583516121,-0.0037041723262518,0.0195331461727619,0.0154917929321527,0.0080700600519776,0.0282383933663368
675,0.0120475692674518,-0.004191611893475,0.0151103809475899,0.0123237129300833,0.002571448450908,0.0215134993195534
676,0.0113213993608952,-0.0058524822816252,0.0134927593171597,0.012121737934649,0.0003669670259114,0.018932893872261
677,0.0126082357019186,-0.0077567244879901,0.0143778333440423,0.0140810813754797,0.0004451453860383,0.0214664377272129
678,0.0141956591978669,-0.008641866967082,0.016813337802887,0.0165385622531176,0.0006182450451888,0.0266455132514238
679,0.014320912770927,-0.0082546519115567,0.0191979892551899,0.0176421161741018,3.09030801872723e-05,0.0302566140890121
680,0.0117097608745098,-0.0071935830637812,0.0181964114308357,0.0142947426065803,-0.0025795046240091,0.0270860195159912
681,0.0073395539075136,-0.0042823748663067,0.0129634728655219,0.0062644868157804,-0.0081193102523684,0.0185197256505489
682,0.0038799073081463,0.0008809503051452,0.0071217841468751,-0.0016271070344373,-0.0140094002708793,0.014954075217247
683,0.0023928985465318,0.0058529558591544,0.0047413273714482,-0.0041696480475366,-0.0164472367614508,0.0240743178874254
684,0.0026386624667793,0.0096071809530258,0.007225991692394,0.0003774932702071,-0.0144376615062356,0.0402848869562149
685,0.0035143392160534,0.0139038246124983,0.0124533018097281,0.0094935484230518,-0.0100479628890753,0.0514128543436527
686,0.0042035309597849,0.0211351849138737,0.0172258485108614,0.018124345690012,-0.0052491528913378,0.0544309318065643
687,0.0060352482832968,0.0295145567506552,0.0194908212870359,0.0219160225242376,-0.0008926437003538,0.0523663833737373
688,0.0096355741843581,0.0310453046113253,0.0180169902741909,0.0197066478431225,0.001592410262674,0.041817668825388
689,0.0148145882412791,0.0198953598737717,0.0144772725179791,0.0155219454318285,0.0019877417944371,0.0193028524518013
690,0.0215441733598709,0.0010708795161917,0.0125357192009687,0.0145466038957238,0.0023814523592591,-0.0074107032269239
691,0.0256680753082037,-0.0126809934154153,0.0110808741301298,0.0138902217149735,0.0020894815679639,-0.0274482909590006
692,0.0231536291539669,-0.0150306625291705,0.0052212085574865,0.0063478499650955,-0.0028263600543141,-0.0388543829321861
693,0.0176675207912922,-0.0131401130929589,-0.0053297760896384,-0.0064095486886799,-0.0122648514807224,-0.0454133078455925
694,0.0143169462680817,-0.0157171916216612,-0.0149456951767206,-0.0137945301830769,-0.0199234373867512,-0.048863660544157
695,0.012997324578464,-0.0226539839059114,-0.0185448043048382,-0.0088583147153258,-0.0208375360816717,-0.0464604757726192
696,0.0113893765956163,-0.028515012934804,-0.0154271889477968,0.003734930884093,-0.0156950559467077,-0.0360348969697952
697,0.0083288289606571,-0.0297444686293602,-0.0078541925176978,0.0139765394851565,-0.0068171182647347,-0.0210933163762093
698,0.0043815257959067,-0.0275709070265293,0.0005377075867727,0.0169842261821032,0.0027262226212769,-0.0079454192891717
699,0.0008472126792185,-0.0256086383014917,0.0065070907585322,0.0140740880742669,0.009429014287889,-0.0012203225633129
700,-0.0020124795846641,-0.0268830247223377,0.009156759828329,0.0085026063024997,0.0126475943252444,-0.0026268770452588
701,-0.0037446962669491,-0.0310112126171589,0.01079120952636,0.003556763054803,0.0153972487896681,-0.0092848241329193
702,-0.0030925192404538,-0.0345833040773869,0.0139522086828947,0.0010241495911032,0.0198098868131638,-0.0141036799177527
703,-0.00111440254841,-0.0358712896704674,0.0170058645308018,-0.0001569456362631,0.0229222737252712,-0.0118860667571425
704,-0.0007709441124461,-0.0362905263900757,0.0157036203891039,-0.0026395912282168,0.0198296271264553,-0.004131291527301
705,-0.0030396780930459,-0.0379573404788971,0.0086332131177187,-0.0069687976501882,0.0098968353122472,0.0023194833192974
706,-0.0070962319150567,-0.0411690436303616,-0.0006489508668892,-0.0102770086377859,-0.0014224499464035,0.0029697031714022
707,-0.0118232592940331,-0.0436938069760799,-0.0067679230123758,-0.0101469168439507,-0.0080180140212178,0.0026689760852605
708,-0.0152575792744756,-0.0437411069869995,-0.007215965539217,-0.0069709839299321,-0.0086982753127813,0.0086178043857216
709,-0.0160995479673147,-0.0427336730062962,-0.0034001714084297,-0.0027441908605396,-0.0062531605362892,0.0167887583374977
710,-0.015159722417593,-0.0429863929748535,0.0017706608632579,-6.25071770627983e-05,-0.0038205366581678,0.0162054412066936
711,-0.0141182849183679,-0.0446398593485355,0.0057803797535598,-0.0006699775694869,-0.0025273819919675,0.0044997078366577
712,-0.0137854442000389,-0.0460896976292133,0.0076966634951531,-0.0038893229793757,-0.0017194622196257,-0.0111332349479198
713,-0.0137651208788157,-0.0456485040485859,0.0084833325818181,-0.0070987646467983,-0.0019861760083586,-0.0224792510271072
714,-0.013603275641799,-0.043388869613409,0.0097260531038045,-0.0080271391198039,-0.0049534989520907,-0.026232460513711
715,-0.0130316261202097,-0.0408596023917198,0.011818909086287,-0.006586730480194,-0.0097142606973648,-0.0241559706628323
716,-0.0127913514152169,-0.0392448306083679,0.0129149900749326,-0.0046200291253626,-0.0139853805303574,-0.0178888346999884
717,-0.0136410444974899,-0.0378414541482925,0.0119895115494728,-0.0032614530064165,-0.0163145232945681,-0.0084252832457423
718,-0.0139909824356437,-0.0347609631717205,0.0117973620072007,-0.0010191871551796,-0.0156284533441067,0.0007773316465318
719,-0.0129159977659583,-0.030240086838603,0.014898931607604,0.0035364034119993,-0.0129361022263765,0.0078855426982045
720,-0.0126741388812661,-0.0265313945710659,0.0184633079916239,0.0075673330575227,-0.0123985875397921,0.0156911481171846
721,-0.0156022626906633,-0.0254038199782372,0.0173520743846893,0.0058833537623286,-0.0169656090438366,0.022792449221015
722,-0.0208720657974482,-0.0261145364493132,0.0113725829869509,-0.0017891769530251,-0.0247557554394007,0.0218949001282454
723,-0.0255447905510664,-0.0255202427506447,0.0045461510308086,-0.0104849627241492,-0.0317254327237606,0.0123286563903093
724,-0.0278449337929487,-0.0229065250605345,-1.53637211042224e-05,-0.0163530521094799,-0.0351064056158066,0.0010389109374955
725,-0.0275237653404474,-0.0219418797641993,-0.0012582045746967,-0.0182709619402885,-0.034025639295578,-0.0078549589961767
726,-0.0252187494188547,-0.026027787476778,-0.0001052869702107,-0.0164916142821312,-0.0296447165310383,-0.0140282940119505
727,-0.0231892243027687,-0.034747876226902,0.001176125369966,-0.0127977188676596,-0.0247388146817684,-0.0176653675734997
728,-0.0227600820362568,-0.044625174254179,0.0014038967201486,-0.0089674638584256,-0.0213450696319342,-0.0191884413361549
729,-0.0235988423228264,-0.0532074868679047,4.89920312247705e-05,-0.0059375441633164,-0.0205050501972437,-0.0199434291571379
730,-0.0268151648342609,-0.0599398910999298,-0.0037272786721587,-0.0046941684558987,-0.0235459245741367,-0.0212423447519541
731,-0.0331662371754646,-0.062907837331295,-0.0092791095376014,-0.0060084001161158,-0.0302683599293232,-0.0214216057211161
732,-0.039931520819664,-0.0604881532490253,-0.013957716524601,-0.0095084514468908,-0.0369542129337788,-0.0190500766038895
733,-0.0432210378348827,-0.0548817366361618,-0.0157878790050745,-0.0137105323374271,-0.0401843301951885,-0.0167658403515816
734,-0.0427742041647434,-0.0499046444892883,-0.0158259849995375,-0.0178007241338491,-0.041971992701292,-0.017011409625411
735,-0.0415462665259838,-0.0470827929675579,-0.0157092269510031,-0.0219142306596041,-0.045343205332756,-0.0187401715666056
736,-0.0406442172825336,-0.0452291890978813,-0.0147622702643275,-0.0255880691111088,-0.0484234467148781,-0.0201950259506702
737,-0.038738738745451,-0.0422797650098801,-0.0116919940337539,-0.0275914072990417,-0.048342127352953,-0.0213810727000237
738,-0.0356194004416466,-0.0382606573402882,-0.0074383001774549,-0.0274732168763876,-0.0463883616030216,-0.0231349356472492
739,-0.032731868326664,-0.0353232696652412,-0.0041146907024085,-0.0264829508960247,-0.0451985150575638,-0.0237671323120594
740,-0.0308265686035156,-0.034234918653965,-0.0023787724785506,-0.0262052919715643,-0.0444539077579975,-0.0199577398598194
741,-0.0291621834039688,-0.0335409305989742,-0.001111107179895,-0.0260158460587263,-0.0428363084793091,-0.0121665894985199
742,-0.0272930469363928,-0.0325381122529507,0.0009969674283638,-0.0243770480155945,-0.040827002376318,-0.0051967208273708
743,-0.0259469971060753,-0.0324843786656857,0.0041583194397389,-0.0219137351959944,-0.0391616448760033,-0.0030792038887739
744,-0.025629922747612,-0.0336747281253338,0.0077890739776194,-0.0200091376900673,-0.0376004315912724,-0.0050664558075368
745,-0.0263339541852474,-0.0347685888409615,0.0105672469362617,-0.0193939432501793,-0.0361997559666634,-0.0093033900484442
746,-0.0279418025165796,-0.0348792001605034,0.0110745429992676,-0.0206106677651405,-0.0354547798633575,-0.0157813504338264
747,-0.0296622794121504,-0.0342345200479031,0.0090688811615109,-0.023496663197875,-0.035858515650034,-0.0233440119773149
748,-0.0305830277502537,-0.0332346372306347,0.0055396845564246,-0.0261302944272757,-0.0378623865544796,-0.0295101460069418
749,-0.0371103473007679,-0.0084751266986131,-0.0451837293803692,-0.0422129444777966,-0.0413155257701874,-0.0419970154762268
750,-0.0355962589383125,-0.0073885167948901,-0.0399655997753143,-0.0403406657278538,-0.0347013883292675,-0.0460323542356491
751,-0.0315821245312691,-0.0061978949233889,-0.0319985412061214,-0.0356882475316525,-0.0227513648569584,-0.0416753627359867
752,-0.0274690296500921,-0.0064949737861752,-0.0249981712549925,-0.0297132302075624,-0.0121927252039313,-0.0343349426984787
753,-0.0250203367322683,-0.0082967234775424,-0.0205080080777407,-0.0247715879231691,-0.0056283539161086,-0.0277724806219339
754,-0.0246081203222275,-0.0113994851708412,-0.0185680836439133,-0.0230299457907677,-0.0027012038044631,-0.0239123106002808
755,-0.0247562415897846,-0.0152323478832841,-0.0176208391785622,-0.0242863986641169,-0.0019253733335062,-0.0242412872612476
756,-0.0237137507647276,-0.0182879865169525,-0.0150274056941271,-0.0261285994201899,-0.0014959222171455,-0.0281309932470322
757,-0.0213321000337601,-0.0192815829068422,-0.0108180548995733,-0.0271076019853354,-0.0008351887809112,-0.0333569012582302
758,-0.0185173042118549,-0.0181280355900526,-0.0079701552167534,-0.0274283401668072,-0.0004093383031431,-0.0362781211733818
759,-0.0161124225705862,-0.0154901836067438,-0.0084476489573717,-0.0274280644953251,-0.0005175076075829,-0.0347910821437836
760,-0.0149585818871856,-0.0119054988026619,-0.0115765370428562,-0.0270101390779018,-0.0017815377796068,-0.0301357060670853
761,-0.0160149652510881,-0.0078240558505058,-0.015387611463666,-0.0257317293435335,-0.0055423276498913,-0.0241878759115934
762,-0.0185092054307461,-0.004112372174859,-0.0182345770299435,-0.0231951344758272,-0.0111797591671348,-0.018093278631568
763,-0.0198929626494646,-0.0022380875889211,-0.0194943509995937,-0.0201817974448204,-0.0154299605637789,-0.012668707408011
764,-0.0186550840735435,-0.0027499340940266,-0.0192141961306334,-0.0178438313305378,-0.0158454719930887,-0.0068588266149163
765,-0.0158218145370483,-0.0042102769948542,-0.0180478673428297,-0.0157431941479445,-0.013085032813251,0.0017642341554164
766,-0.0141432676464319,-0.0051925079897046,-0.016972241923213,-0.0131398467347026,-0.0099040828645229,0.0122201265767217
767,-0.0151982372626662,-0.0050922613590955,-0.0162655133754015,-0.0107880374416709,-0.0084338244050741,0.0198434814810753
768,-0.0179174598306417,-0.0034190465230494,-0.0155073711648583,-0.0098853781819343,-0.0078675867989659,0.0219250731170177
769,-0.0204473994672298,-0.0003724227135535,-0.0146990409120917,-0.0106350844725966,-0.0057522193528711,0.0192888882011175
770,-0.0215923506766558,0.0029444450046867,-0.0143798971548676,-0.0118032051250339,-0.0015503980685025,0.0135817090049386
771,-0.0213910490274429,0.0050411154516041,-0.0144471693783998,-0.0118111250922084,0.0027556761633604,0.006584548857063
772,-0.021031279116869,0.005534644704312,-0.0142246494069695,-0.0110413664951921,0.0046946266666054,-0.0007829932146705
773,-0.0217785108834505,0.0047522578388452,-0.013860666193068,-0.0113843632861972,0.0034650801680982,-0.0076244347728788
774,-0.0236494261771441,0.0024572904221713,-0.0140592698007822,-0.0132717005908489,0.0001598312810529,-0.0117340367287397
775,-0.0251767560839653,0.0001218979086843,-0.0148972850292921,-0.0144188348203897,-0.0041004540398716,-0.0126226423308253
776,-0.0250911395996809,-0.0003887773200403,-0.0151515761390328,-0.0125236213207245,-0.0066088098101317,-0.0127839799970388
777,-0.0237269308418036,-0.0008183940080925,-0.013224539346993,-0.0091830836609005,-0.0042492351494729,-0.0145424017682672
778,-0.022417888045311,-0.0034201694652438,-0.0094446139410138,-0.0077251312322914,0.0008477661176584,-0.0175623893737793
779,-0.0218598879873753,-0.007543156389147,-0.0058905528858304,-0.008752629160881,0.0037295126821845,-0.0208702050149441
780,-0.0216473154723644,-0.0109382523223758,-0.003147785551846,-0.010281827300787,0.0030972245149314,-0.0237193088978529
781,-0.0221878942102194,-0.0114207705482841,-0.0008393903262913,-0.0107598286122084,0.0004347131471149,-0.0246066991239786
782,-0.0241114646196365,-0.0085032591596245,-0.0001516786142019,-0.0109636634588242,-0.002674066228792,-0.0222692918032408
783,-0.0256218481808901,-0.0038495713379234,-0.0012707035057246,-0.0118855172768235,-0.0040827435441315,-0.0155142098665237
784,-0.0247393883764744,0.0008482675184495,-0.0015238039195537,-0.0118424687534571,-0.0035242447629571,-0.002638098783791
785,-0.0219689626246691,0.005191137548536,0.0006532194092869,-0.009746721945703,-0.0034198986832052,0.0127901276573539
786,-0.0170793384313583,0.0117090661078691,0.0033169756643474,-0.008023414760828,-0.0046134232543408,0.0212532300502062
787,-0.0084047000855207,0.0248075742274523,0.0049962201155722,-0.0076422821730375,-0.0054031931795179,0.0192195530980825
788,0.0014610338257625,0.0417726263403893,0.0061446744948625,-0.0073673906736075,-0.0044400449842214,0.0115829464048147
789,0.0065495581366121,0.0522129684686661,0.0064511238597333,-0.0078854756429791,-0.0011225411435589,0.0052342172712087
790,0.0048527093604207,0.050362840294838,0.0057214791886508,-0.0098373349756002,0.0038738811854273,0.0043630674481391
791,3.42859420925379e-05,0.0404523052275181,0.005706472788006,-0.0109557695686817,0.0073633939027786,0.0059671476483345
792,-0.003770827082917,0.0291860848665237,0.0081642959266901,-0.0091790873557329,0.0074036344885826,0.0037410410586744
793,-0.0055122412741184,0.0193838216364384,0.0125191323459148,-0.0055594621226191,0.0054908473975956,-0.0035085305571556
794,-0.0059714787639677,0.011314426548779,0.0159954633563757,-0.002552330493927,0.0030711656436324,-0.0113400602713227
795,-0.0061239269562065,0.0046065859496593,0.0164990983903408,-0.0009376971283927,0.0004422882630024,-0.0144550930708647
796,-0.0062356670387089,-0.0011425446718931,0.015348912216723,0.0006002146983519,-0.0012255988549441,-0.0111678270623088
797,-0.0062864157371223,-0.0052346941083669,0.0146154426038265,0.0026823112275451,-0.0013017125893384,-0.0057244044728577
798,-0.0063411951996386,-0.0055300793610513,0.013854737393558,0.0037709968164563,-0.0013490578858181,-0.0034931774716824
799,-0.0071688848547637,-0.0006109995883889,0.0113088432699442,0.0014618766726926,-0.0034809706266969,-0.0048726717941463
800,-0.010014409199357,0.0082012955099344,0.0064584952779114,-0.0038249113131314,-0.0087249837815761,-0.0065517118200659
801,-0.0140030849725008,0.0166472569108009,0.0015508825890719,-0.0074356687255203,-0.0154547700658441,-0.0052243643440306
802,-0.0160088166594505,0.0203294344246387,5.19624336448032e-05,-0.0057562151923775,-0.0193958282470703,0.0007018716423772
803,-0.0129803624004126,0.0189965255558491,0.0033205451909452,-0.0002780724316835,-0.016265170648694,0.0096885608509182
804,-0.0045140711590647,0.0152734545990825,0.0091146258637309,0.0052220290526747,-0.0057666753418743,0.0161645300686359
805,0.0062782978639006,0.0124503104016185,0.0135650085285306,0.0086783766746521,0.0070348442532122,0.0153720807284117
806,0.0149769000709057,0.0135617563501,0.0141997039318085,0.0094553148373961,0.0157363191246986,0.0092158587649464
807,0.0185421817004681,0.0175697766244411,0.011493269354105,0.0078400382772088,0.01762411929667,0.0031487639062106
808,0.0172072537243366,0.0218942854553461,0.0090499008074402,0.0065025212243199,0.0152898523956537,0.0013671719934791
809,0.0133593659847975,0.0261438321322203,0.0097084576264023,0.0079076327383518,0.0131431389600039,0.004605024587363
810,0.0090049384161829,0.0302442815154791,0.0125602576881647,0.0113609060645103,0.013413549400866,0.0119541911408305
811,0.0056864586658775,0.0339019075036049,0.0154026765376329,0.0146779799833894,0.0160779617726803,0.0234862212091684
812,0.00431823823601,0.0352253168821335,0.0176561791449785,0.0167091861367226,0.0201277639716864,0.0347629077732563
813,0.0049825115129351,0.0331538617610931,0.0206511504948139,0.0186591669917107,0.0239321943372488,0.0394696779549122
814,0.0075297728180885,0.0297793559730053,0.0245262421667576,0.0209427922964096,0.0265540517866611,0.0369178764522076
815,0.0112773887813091,0.0262421350926161,0.0267764367163181,0.021696213632822,0.0283658187836409,0.0284044239670038
816,0.015005461871624,0.0223938822746277,0.025554221123457,0.0209017731249332,0.0296355504542589,0.015663942322135
817,0.0171581450849772,0.0190323330461979,0.0219156295061111,0.0197674818336964,0.030034052208066,0.0026785749942064
818,0.0160947497934103,0.0173086430877447,0.0177819486707449,0.0180549491196871,0.0286316014826298,-0.0068512842990458
819,0.0117439264431596,0.0176005251705647,0.0138242300599813,0.0157250519841909,0.0245172660797834,-0.0112673658877611
820,0.0066178203560411,0.0191019792109728,0.0098613752052187,0.0133418412879109,0.0188099127262831,-0.0112539967522025
821,0.0030901096761226,0.0196032132953405,0.0054640835151076,0.0104806460440159,0.0139821162447333,-0.0099633177742362
822,0.0003412497753743,0.0169685855507851,0.0005354916211217,0.0068841911852359,0.0104842558503151,-0.0105770584195852
823,-0.002961887512356,0.0128459539264441,-0.0038850659038871,0.0049335309304297,0.0076260701753199,-0.0112695442512631
824,-0.0063706808723509,0.0106868175789714,-0.0072067910805344,0.0065240603871643,0.0047261002473533,-0.0047642136923968
825,-0.0088028740137815,0.0103875901550055,-0.0096520874649286,0.0094567639753222,0.0019596889615058,0.0115116322413087
826,-0.0088727371767163,0.009959484450519,-0.0102179516106844,0.010692966170609,0.0016100720968097,0.0283030830323696
827,-0.0066366982646286,0.0089219212532043,-0.0082236947491765,0.0095623452216386,0.0039864373393356,0.0359253361821175
828,-0.0038974627386778,0.0077345985919237,-0.0047868941910564,0.0073633906431496,0.0069441744126379,0.0354337356984615
829,-0.0017010676674544,0.0069885090924799,-0.0011148955672979,0.0057466560974717,0.0093396417796611,0.032974898815155
830,0.0001565104321343,0.0080588208511471,0.0023378815967589,0.0056207086890935,0.0104525098577142,0.0319727025926113
831,0.0013080097269266,0.0117592755705118,0.0047667347826063,0.0058457609266042,0.0092813251540064,0.0297830235213041
832,0.0010486536193639,0.016453955322504,0.0051418328657746,0.0043918257579207,0.0062539735808968,0.0223296228796244
833,0.0002709248219616,0.0197035577148199,0.0040186578407883,0.0021589177194982,0.0034833003301173,0.0123882666230202
834,0.0001109192162402,0.0200505182147026,0.002128088613972,0.0010090690338984,0.0018501775339245,0.0056784814223647
835,0.0005022044060751,0.0178008750081062,-0.0010581173701211,0.0010213499190285,0.0002358052879571,0.0040902476757764
836,0.0016361443558707,0.0159711763262749,-0.0045373947359621,0.0025782589800655,-0.0013349462533369,0.0077798920683562
837,0.003942051436752,0.0178989078849554,-0.0053023132495582,0.0061392821371555,-0.0010562401730567,0.0163385011255741
838,0.0064388397149741,0.0231332872062922,-0.0025333990342915,0.0098553039133548,0.001346637844108,0.0259535647928715
839,0.0073618884198367,0.0297066010534763,0.0009385028388351,0.0108458530157804,0.0035962557885795,0.0308430846780539
840,0.0065709827467799,0.0386343188583851,0.0030009178444743,0.008735591545701,0.0044141337275505,0.0288739930838346
841,0.0048923036083579,0.0490887314081192,0.0038583814166486,0.0046254266053438,0.0043595372699201,0.0224719624966383
842,0.0027584999334067,0.0559179224073887,0.004099394660443,-0.0001161907202913,0.0038310415111482,0.0157413836568594
843,0.0013217825908213,0.0566338449716568,0.0049927965737879,-0.0026001019868999,0.0043863160535693,0.0132972672581673
844,0.0009633529116399,0.0524496845901012,0.0072382451035082,-0.0014136066893115,0.0077504240907728,0.0166346020996571
845,-0.0004040716448798,0.0452693440020084,0.0091120330616831,0.0017942114500328,0.011184117756784,0.0227372534573078
846,-0.0046411361545324,0.0371239483356476,0.0078330300748348,0.0047110519371926,0.0095633491873741,0.0270389057695866
847,-0.0097001595422625,0.0292222127318382,0.0033988317009061,0.0061320085078477,0.003787062363699,0.025678526610136
848,-0.0114693148061633,0.0223141442984343,-0.0010266589233651,0.0063330945558846,-9.43923441809602e-05,0.0188946276903152
849,-0.0096145514398813,0.0173379555344582,-0.0040161050856113,0.0068716127425432,-0.0007388519588857,0.0119954915717244
850,-0.00768035184592,0.0135335568338633,-0.0069661047309637,0.0084268525242805,-0.0026813792064786,0.0085333446040749
851,-0.0073783257976174,0.0094334911555051,-0.0100131873041391,0.0093366680666804,-0.0077397194691002,0.0069720768369734
852,-0.0068724262528121,0.007163826841861,-0.010523883625865,0.0097352731972932,-0.0118619427084923,0.0082951197400689
853,-0.0047723869793117,0.0110341664403677,-0.006759013980627,0.0112640587612987,-0.0108149172738194,0.0159574337303638
854,-0.0018220192287117,0.0212941765785217,0.000123839781736,0.0132725527510047,-0.0038231215439736,0.0273890737444162
855,0.0015911660157144,0.0326006524264812,0.0078324945643544,0.0145279942080379,0.0068850759416818,0.0345819555222988
856,0.0059848329983651,0.0398671329021454,0.0141349798068404,0.0146168507635593,0.0166534632444382,0.0342410169541836
857,0.0100207943469286,0.0423298850655556,0.0187954567372799,0.0137360878288746,0.0213596448302269,0.0312798917293549
858,0.011535881087184,0.0423873253166676,0.0241213999688625,0.0136880613863468,0.0218272600322962,0.0304738041013479
859,0.0103262141346931,0.0442241318523884,0.030011722818017,0.015841968357563,0.0202216561883688,0.031723864376545
860,0.0066980486735701,0.0500691942870617,0.0320779830217361,0.0177971385419369,0.0146052334457636,0.0319315083324909
861,0.0022310805507004,0.0570547208189964,0.029232831671834,0.0179923921823502,0.0056848828680813,0.0285609774291515
862,0.0006968429661355,0.0601891092956066,0.0267529301345348,0.0192045848816633,0.0002073079522233,0.023370236158371
863,0.0038693610113114,0.0569485202431679,0.0287552550435066,0.022436585277319,0.0020949700847268,0.0202352926135063
864,0.0094009879976511,0.0489206574857235,0.0335661359131336,0.0245908815413713,0.0078848600387573,0.0187237951904535
865,0.0139407850801945,0.0397963523864746,0.0372859500348568,0.023527380079031,0.0119502544403076,0.0168768018484116
866,0.0165837947279215,0.032026682049036,0.0384531319141388,0.0207196176052094,0.0123878801241517,0.0180976819247007
867,0.0178097039461136,0.0256409402936697,0.0370341017842293,0.018026465550065,0.0097412336617708,0.0247747842222452
868,0.01797647587955,0.0210181083530188,0.0330590978264809,0.014910246245563,0.0049718921072781,0.0300659537315369
869,0.017849400639534,0.0195648409426212,0.0276789963245392,0.0096374237909913,-3.99960154027212e-05,0.0242625828832388
870,0.0172282177954912,0.020048500970006,0.0213257726281881,0.0010484730591997,-0.0047249342314899,0.0055898413993418
871,0.0161968097090721,0.0207499675452709,0.0150413876399398,-0.00835273694247,-0.0087693212553858,-0.0162387043237686
872,0.0158322248607874,0.0232564900070429,0.0112917488440871,-0.0140308775007725,-0.0108531378209591,-0.0279872808605433
873,0.0154228843748569,0.0289256945252419,0.0097854156047105,-0.0152998520061374,-0.0120190605521202,-0.0263042766600847
874,0.0135992718860507,0.0355674400925636,0.0086808213964104,-0.0146634085103869,-0.0145086823031306,-0.0184743292629719
875,0.0094733946025371,0.0390613041818142,0.0070780706591904,-0.0145664736628532,-0.0192587729543447,-0.0123186120763421
876,0.0044582663103938,0.0384267866611481,0.0057580401189625,-0.0147446319460869,-0.0246419925242662,-0.0095251109451055
877,0.0017922669649124,0.0371431410312653,0.0062943478114903,-0.0129385441541672,-0.0277788415551186,-0.0073757162317633
878,0.0013043991057202,0.0373926162719727,0.0078450003638863,-0.0087247304618358,-0.0286868680268526,-0.0036096223630011
879,0.0014682937180623,0.0381596311926842,0.0088811283931136,-0.002753201406449,-0.0284985676407814,0.0038580812979489
880,0.0030473391525447,0.0381174497306347,0.0099646914750337,0.0043809008784592,-0.02649343945086,0.0159461852163076
881,0.0062917359173297,0.0368480645120144,0.0125269647687674,0.0107874739915133,-0.0215044226497412,0.0285641066730022
882,0.0091504324227571,0.0350642763078213,0.0164123140275478,0.0145334359258413,-0.0144897699356079,0.0369137413799763
883,0.01016731467098,0.0335165821015835,0.0194630045443773,0.0148417139425874,-0.0084673622623086,0.0394841060042381
884,0.010675486177206,0.0326252728700638,0.0203857496380806,0.0119497645646334,-0.0048122098669409,0.0374931432306767
885,0.011616955511272,0.0318915694952011,0.0193579401820898,0.0069229146465659,-0.0030423931311816,0.032879751175642
886,0.0118495542556047,0.029403006657958,0.01607446372509,0.0007105477852746,-0.0036690409760922,0.023781718686223
887,0.0109784966334701,0.0254544783383608,0.0108226742595434,-0.0053020995110273,-0.0069992151111364,0.0096931420266628
888,0.0089854514226317,0.0225760452449322,0.0053031169809401,-0.0096897706389427,-0.0118739334866405,-0.0047603757120668
889,0.0049093095585703,0.0217837058007717,0.0012030353536829,-0.011502799578011,-0.0169901866465807,-0.0160919949412346
890,-0.001463170396164,0.0225961413234472,-0.0005022553377784,-0.0100107882171869,-0.021306985989213,-0.0223495587706566
891,-0.0079001355916261,0.0249028727412224,0.0002244264469482,-0.0068211150355637,-0.0230984017252922,-0.0221437867730856
892,-0.0120181059464812,0.0278384797275066,0.0017285372596234,-0.0052932328544557,-0.0219196304678917,-0.0182901229709387
893,-0.013783666305244,0.0294971242547035,0.001763536944054,-0.0070473146624863,-0.0198535807430744,-0.0168215781450272
894,-0.0135894231498241,0.0297809410840273,-0.0004166996804997,-0.0119472360238433,-0.0176314134150743,-0.0208116509020329
895,-0.0115994019433856,0.0295375417917967,-0.0039284164085984,-0.018136028200388,-0.0144792152568698,-0.025968162342906
896,-0.0085379667580127,0.028428690508008,-0.0066721066832542,-0.0217902269214392,-0.0106098558753729,-0.024064514786005
897,-0.0060000140219926,0.0253311768174171,-0.0074079581536352,-0.0210826229304075,-0.0072840983048081,-0.0134024042636156
898,-0.0046635614708066,0.0207658484578133,-0.0066187563352286,-0.0172878410667181,-0.0056310556828975,0.0008070037001743
899,-0.0032549076713621,0.0180696304887533,-0.0054662553593516,-0.0122609063982964,-0.0060296044684946,0.0150304799899459
900,-0.0013864417560398,0.0182648450136185,-0.0057921116240322,-0.0085292933508753,-0.0084346793591976,0.025605708360672
901,0.00062114931643,0.0181998498737812,-0.00832000374794,-0.0075861881487071,-0.0109921870753169,0.0277312714606524
902,0.0023552346974611,0.0163659136742353,-0.0135663533583283,-0.0084871612489223,-0.0121739162132144,0.0224595982581377
903,0.0023434699978679,0.0146615272387862,-0.022630587220192,-0.0104478122666478,-0.013932722620666,0.0158171802759171
904,-0.0005756886093877,0.0146484700962901,-0.0324007570743561,-0.0135521776974201,-0.0190709177404642,0.0114640668034554
905,-0.0062731252983212,0.015599712729454,-0.0389757789671421,-0.0173849165439606,-0.027613764628768,0.0080397324636578
906,-0.0130669781938195,0.0163799878209829,-0.0422639213502407,-0.0210249405354261,-0.0366159863770008,0.0022879347670823
907,-0.0177380703389645,0.0182322338223457,-0.0410639271140099,-0.0236921664327383,-0.0427964106202126,-0.0057907053269445
908,-0.0178456846624613,0.0237824022769928,-0.034288614988327,-0.0242582429200411,-0.0436461828649044,-0.0108804041519761
909,-0.0143219446763396,0.0312285404652357,-0.0260389745235443,-0.0219944026321173,-0.0401985310018063,-0.0085107320919632
910,-0.0095020858570933,0.0343194752931595,-0.0221519581973553,-0.0189008340239525,-0.0377973690629005,-0.0007217674865387
911,-0.0054460153914988,0.0303035881370306,-0.0230373423546553,-0.0172955170273781,-0.0400031842291355,0.010254898108542
912,-0.0047034891322255,0.0229169484227896,-0.024334155023098,-0.0156948808580637,-0.0466496236622334,0.0257262829691172
913,-0.0069038020446896,0.0165747180581093,-0.022921659052372,-0.0117192193865776,-0.0538132153451443,0.0420888811349869
914,-0.0079698646441102,0.0104618817567825,-0.0190811511129141,-0.0055330963805317,-0.0551961176097393,0.0504380241036415
915,-0.0061500566080212,0.0032525393180549,-0.0157969109714031,-1.00027873486397e-05,-0.0504576973617077,0.0467809326946735
916,-0.0037210760638117,-0.0019539049826562,-0.0165716204792261,0.0002786261029541,-0.0450544953346252,0.0328370407223701
917,-0.0021585763897746,-0.0031431028619408,-0.0224024392664433,-0.0041085598058998,-0.0397778525948524,0.0108064645901322
918,-0.0015628079418093,-0.0018756553763523,-0.0318352542817593,-0.006693999748677,-0.0330766290426254,-0.0161835961043835
919,-0.0029115544166415,6.02571417402942e-05,-0.0423692986369133,-0.0071971067227423,-0.0288477465510368,-0.0414971075952053
920,-0.0067033795639872,0.0015812215860933,-0.0502398908138275,-0.0116946836933494,-0.0293144341558218,-0.0563284233212471
921,-0.0123342256993055,0.0022860302124172,-0.0511490106582642,-0.0200002063065767,-0.03100067935884,-0.0577610246837139
922,-0.0169211383908987,0.0030880230478942,-0.044229794293642,-0.0268171988427639,-0.0319917313754559,-0.0528702810406685
923,-0.0174551773816347,0.0043852874077856,-0.035224262624979,-0.0306507758796215,-0.0337384417653084,-0.0493958480656147
924,-0.016125624999404,0.0047007068060338,-0.0305777117609978,-0.0321559272706509,-0.0375801511108875,-0.0480026081204414
925,-0.0164252985268831,0.0017158286646008,-0.0308266188949347,-0.030717708170414,-0.0421243570744991,-0.0493780039250851
926,-0.0174225699156523,-0.0057342126965522,-0.033168438822031,-0.0263451524078846,-0.0433384738862515,-0.0559047572314739
927,-0.0167794227600098,-0.0141169521957636,-0.0343384966254234,-0.0206254608929157,-0.0408251546323299,-0.060726311057806
928,-0.0155300972983241,-0.0153122087940574,-0.0295023657381535,-0.0149497510865331,-0.041627511382103,-0.0524860210716724
929,-0.0169559195637703,-0.0045212237164378,-0.0173717252910137,-0.0075374282896518,-0.0521763414144516,-0.0297575611621141
930,-0.0215110685676336,0.0120303081348538,-0.0077731567434966,0.0031854340340942,-0.0675526410341263,-0.0001313516549998
931,-0.0251035299152136,0.0223542172461748,-0.0105709051713347,0.0103019904345274,-0.0730034112930298,0.0240105409175158
932,-0.02507334202528,0.0220475047826767,-0.0213141366839409,0.0044912444427609,-0.0628803595900536,0.0292767584323883
933,-0.0236620083451271,0.0183850657194853,-0.0299552138894796,-0.0114080486819148,-0.0482335612177849,0.0151807079091668
934,-0.0225234925746918,0.0195680037140846,-0.0319208949804306,-0.0263756308704615,-0.038318257778883,-0.0023922582622617
935,-0.0207417756319046,0.0246966760605574,-0.0275838971138,-0.0334701128304005,-0.0326519906520844,-0.0091928085312247
936,-0.017930069938302,0.0273189712315798,-0.0203194189816713,-0.0320876091718674,-0.0294756684452295,-0.0076912115328013
937,-0.0149470362812281,0.0233901422470808,-0.0141772674396634,-0.0256371330469847,-0.028419790789485,-0.0097937285900116
938,-0.0126818595454097,0.0139490589499474,-0.0110344607383013,-0.0175698343664408,-0.0291215050965548,-0.0191904585808516
939,-0.0108628962188959,0.0031747173052281,-0.0102904299274087,-0.0102254245430231,-0.0309216249734163,-0.0308315400034189
940,-0.0079262042418122,-0.0043775527738034,-0.0103649692609906,-0.005085626617074,-0.0324968509376049,-0.0410344265401363
941,-0.0025130417197942,-0.0066049275919795,-0.0095053175464272,-0.0013574977638199,-0.0320274978876114,-0.0481464676558971
942,0.0047188363969326,-0.0039378539659082,-0.0072361673228442,0.0024134966079145,-0.0289391148835421,-0.0495533123612404
943,0.011410822160542,0.0020750253461301,-0.0044857044704258,0.0066724233329296,-0.0238845944404602,-0.0444181226193905
944,0.0156396832317114,0.0078789563849568,-0.0021459646522998,0.0112259397283196,-0.0169578678905964,-0.0376253798604012
945,0.0169423148036003,0.0105437720194459,-0.0010339691070839,0.0156455095857382,-0.0090809632092714,-0.0341683812439442
946,0.0163517482578754,0.0115013336762786,-0.001577477552928,0.0178442057222128,-0.0026980843394994,-0.0320412255823612
947,0.0157243851572275,0.0135958595201373,-0.0038899818900972,0.0150840198621154,-0.0003695483610499,-0.0278330277651548
948,0.0153043940663338,0.0175993200391531,-0.007642779033631,0.009950547479093,-0.0049971956759691,-0.0215964447706938
949,0.0135728595778346,0.0225585289299488,-0.0109505774453282,0.0080457832664251,-0.0166178904473782,-0.0129778664559126
950,0.0104663707315922,0.0259550660848618,-0.010993467643857,0.0106419147923589,-0.0286935623735189,-0.0024382786359638
951,0.0070675951428711,0.0245199128985405,-0.0069126202724874,0.0160970203578472,-0.0347173027694225,0.0092029180377721
952,0.0038660550490021,0.0181135404855013,-0.0021146547514945,0.0224599819630384,-0.0350850000977516,0.0246056281030178
953,0.0032458207570016,0.0114055704325438,-0.0004244610317982,0.0272391904145479,-0.0320548117160797,0.0398212112486362
954,0.0074086785316467,0.0080631421878933,-0.0023388608824461,0.0283682364970446,-0.0269046369940043,0.0419230423867702
955,0.013962241820991,0.0072218314744532,-0.0066943387500941,0.0255236029624939,-0.0225679315626621,0.0276268906891346
956,0.0190349128097296,0.0072333449497818,-0.0118483379483223,0.0201274268329144,-0.0211262051016092,0.0068057565949857
957,0.0218054261058569,0.0080796396359801,-0.0160703659057617,0.0144490078091621,-0.0216600075364113,-0.0107009615749121
958,0.023188253864646,0.0094230230897665,-0.0187210533767939,0.0101281944662333,-0.02336385846138,-0.020745700225234
959,0.0234101098030806,0.0093369921669364,-0.0207806546241045,0.0064564272761344,-0.0269940327852964,-0.0243766959756613
960,0.0231243688613176,0.0078975372016429,-0.0231090355664492,0.0026765372604131,-0.0319192260503769,-0.0256447568535805
961,0.0222005490213633,0.0071550174616277,-0.0259082615375519,-0.0001576891954755,-0.0366196148097515,-0.0278977565467358
962,0.0191546846181154,0.006390577647835,-0.0294682960957289,-0.00027366753784,-0.0409740507602692,-0.0271184910088778
963,0.0139604033902287,0.0030648095998913,-0.0338777303695679,0.0029163034632802,-0.0445949546992779,-0.0150238806381822
964,0.009247688576579,-0.0025197211652994,-0.0385991968214512,0.0068472917191684,-0.0461828894913197,0.0054609337821602
965,0.0084557980298996,-0.0070933131501078,-0.0421408042311668,0.0092597557231783,-0.045753788203001,0.021349249407649
966,0.0102614741772413,-0.0105110742151737,-0.0440009348094463,0.0095310872420668,-0.0457860417664051,0.0237904563546181
967,0.0095787849277257,-0.0164342951029539,-0.0452095083892345,0.006307297386229,-0.0484026372432709,0.0138276880607009
968,0.0056407274678349,-0.0251138154417276,-0.0462927781045437,-0.0001717786508379,-0.0523790158331394,-0.0012837048852816
969,0.00113794230856,-0.033866249024868,-0.0476992353796959,-0.0076386150903999,-0.0556356944143772,-0.0182086024433374
970,-0.002730646636337,-0.0412669517099857,-0.0498456545174122,-0.0146147022023797,-0.0571605749428272,-0.0385263487696648
971,-0.0058307251892983,-0.0454762578010559,-0.0521948300302029,-0.0202120877802372,-0.0561869367957115,-0.0593010038137436
972,-0.0088538099080324,-0.0446299090981483,-0.0547983907163143,-0.0232669580727816,-0.0541884936392307,-0.0737540423870087
973,-0.0127205569297075,-0.0389620773494244,-0.0584355555474758,-0.0228566415607929,-0.0541352219879627,-0.0773280262947083
974,-0.0166224576532841,-0.0300070252269506,-0.0625300407409668,-0.0192068386822939,-0.0562908463180065,-0.0679262727499008
975,-0.0194950941950083,-0.0206760205328465,-0.0657682418823242,-0.0147927487269044,-0.0588897205889225,-0.0484124943614006
976,-0.0213319957256317,-0.0147563153877854,-0.0675745159387589,-0.0127806263044477,-0.0599009171128273,-0.0289099924266338
977,-0.0223499368876219,-0.0135600380599499,-0.0678661093115807,-0.0135911731049418,-0.0578247383236885,-0.0193261131644249
978,-0.0225538536906242,-0.0135528426617384,-0.0667886435985565,-0.0147301601245999,-0.0529659800231457,-0.0200573168694973
979,-0.0216771475970745,-0.009672611951828,-0.0643205791711807,-0.014044045470655,-0.0452016107738018,-0.0246974807232618
980,-0.0206734873354435,-0.0022787591442465,-0.0609990954399109,-0.0119858775287867,-0.0347673781216145,-0.0288282837718725
981,-0.0208508782088757,0.0044525461271405,-0.0581288300454617,-0.0096410373225808,-0.0254893992096186,-0.030152153223753
982,-0.0220035444945097,0.0081022456288337,-0.0566593743860722,-0.0068464851938188,-0.0220189057290554,-0.0267263874411583
983,-0.0232588928192854,0.0075635071843862,-0.0567347891628742,-0.0036879035178571,-0.0245129875838757,-0.0203328356146812
984,-0.0240076426416636,0.002971232170239,-0.0576876625418663,-0.0006335584912449,-0.0295989029109478,-0.0151253221556544
985,-0.0234600696712732,-0.0040893699042499,-0.0584159381687641,0.0018961926689371,-0.0340149812400341,-0.0130453510209918
986,-0.0207755509763956,-0.012140809558332,-0.0577884912490845,0.0024891989305615,-0.0348471999168396,-0.0139028253033757
987,-0.0175628885626793,-0.0194635987281799,-0.0564816035330296,0.000676799507346,-0.0323691628873348,-0.0156368389725685
988,-0.0163058266043663,-0.0222721770405769,-0.0568135567009449,-0.001384072122164,-0.0298031885176897,-0.0148908691480756
989,-0.017034912481904,-0.0169204119592905,-0.0595799870789051,-0.0024061433505266,-0.0285954624414444,-0.0107767023146153
990,-0.0197001099586487,-0.0053681270219385,-0.0641249567270279,-0.0035722665488719,-0.029402107000351,-0.0030447468161582
991,-0.0245730448514223,0.0049830344505608,-0.0694874972105026,-0.0061007891781628,-0.0327534973621368,0.0082665802910924
992,-0.0289411898702383,0.0079363454133272,-0.0730565935373306,-0.0096422936767339,-0.0361436791718006,0.016281645745039
993,-0.0300685409456491,0.0026704859919846,-0.072517417371273,-0.0121307717636228,-0.0373009964823723,0.0117761325091124
994,-0.0297690015286207,-0.0085609294474124,-0.0693243592977524,-0.0116408858448267,-0.0378792621195316,-0.0046026320196688
995,-0.0304622054100037,-0.0215324405580759,-0.0661516711115837,-0.0084263198077678,-0.0378842614591122,-0.0217786561697721
996,-0.0311114210635424,-0.0311266146600246,-0.0644038841128349,-0.0052361087873578,-0.0338180102407932,-0.0321103818714619
