,AF3,AF4,Fp1,Fp2,AF7,AF8
0,-0.0655902773141861,0.00156697246711701,-0.117418169975281,-0.0398298799991608,-0.0989535450935364,-0.069768950343132
1,-0.0600298494100571,0.00953201297670603,-0.120745174586773,-0.0458554588258266,-0.0967628136277199,-0.0790765509009361
2,-0.0554538667201996,0.015724578872323,-0.124932840466499,-0.0533685125410557,-0.093770943582058,-0.0887224972248077
3,-0.0545906759798527,0.0208280216902494,-0.129923328757286,-0.0615922547876835,-0.0927395150065422,-0.0957395061850548
4,-0.0563477389514446,0.0244267750531435,-0.135359317064285,-0.0707754492759705,-0.0926066935062408,-0.100191064178944
5,-0.0587152317166328,0.0256232973188162,-0.141850709915161,-0.0804826989769936,-0.0914922431111336,-0.104125335812569
6,-0.0618451125919819,0.0243790578097105,-0.150608748197556,-0.0899767950177193,-0.0901293009519577,-0.109443627297878
7,-0.065479151904583,0.0223922673612833,-0.16160175204277,-0.0997301191091537,-0.0891946852207184,-0.117513082921505
8,-0.0684787705540657,0.0210419986397028,-0.174259155988693,-0.110915772616863,-0.0884801521897316,-0.128322586417198
9,-0.0722780078649521,0.0190832987427711,-0.188661113381386,-0.123473465442657,-0.089908666908741,-0.139251247048378
10,-0.0789952874183655,0.0146978925913572,-0.203847825527191,-0.135735645890236,-0.0958639904856682,-0.148206904530525
11,-0.0877069979906082,0.00866132881492376,-0.217983320355415,-0.146192282438278,-0.105424843728542,-0.154988974332809
12,-0.0959193408489227,0.00368885463103652,-0.230318933725357,-0.154775947332382,-0.11473410576582,-0.159345045685768
13,-0.101295150816441,0.00151740643195808,-0.240387618541718,-0.162128448486328,-0.11920253932476,-0.161995187401772
14,-0.103284478187561,0.0013309910427779,-0.248168528079987,-0.168593123555183,-0.117687202990055,-0.164650037884712
15,-0.102747283875942,0.00145818223245442,-0.254185944795609,-0.17369931936264,-0.11260974407196,-0.168255835771561
16,-0.0997328981757164,0.00227466132491827,-0.258153676986694,-0.176361739635468,-0.106002122163773,-0.17179074883461
17,-0.0953891277313232,0.00481031788513064,-0.26136577129364,-0.177180528640747,-0.101089857518673,-0.173479422926903
18,-0.093190997838974,0.0072488933801651,-0.267046213150024,-0.179178789258003,-0.101865954697132,-0.174684971570969
19,-0.0968932658433914,0.00519067561253905,-0.277331709861755,-0.186070173978806,-0.109700687229633,-0.180375337600708
20,-0.106852635741234,-0.00299279158934951,-0.291974246501923,-0.199178487062454,-0.122934401035309,-0.193006500601768
21,-0.120012290775776,-0.0148004675284028,-0.308582335710526,-0.215429842472076,-0.138675898313522,-0.208961889147758
22,-0.133370667695999,-0.0283649545162916,-0.323620736598969,-0.230991661548615,-0.15355196595192,-0.22418549656868
23,-0.145158961415291,-0.0426533557474613,-0.334447294473648,-0.24449023604393,-0.164489760994911,-0.237355828285217
24,-0.155520662665367,-0.0555663406848907,-0.341220736503601,-0.254992514848709,-0.172343745827675,-0.24677312374115
25,-0.165084823966026,-0.0651916712522507,-0.345452040433884,-0.261142730712891,-0.179859265685081,-0.250944465398788
26,-0.172551035881042,-0.0706208720803261,-0.347970545291901,-0.263304561376572,-0.186527341604233,-0.250945121049881
27,-0.176061436533928,-0.0721219554543495,-0.348730772733688,-0.263094902038574,-0.190678834915161,-0.248958364129066
28,-0.17503347992897,-0.0703586786985397,-0.347076296806335,-0.26107782125473,-0.192079558968544,-0.246109783649445
29,-0.170632481575012,-0.0666051134467125,-0.343190252780914,-0.258011698722839,-0.191016972064972,-0.243691027164459
30,-0.164823442697525,-0.0632248967885971,-0.33777841925621,-0.255212754011154,-0.187509581446648,-0.242418572306633
31,-0.159536197781563,-0.0616517327725887,-0.330648273229599,-0.252151906490326,-0.182551711797714,-0.24040986597538
32,-0.157194718718529,-0.0625745505094528,-0.322931408882141,-0.24847985804081,-0.179056406021118,-0.23699489235878
33,-0.159020513296127,-0.0661398246884346,-0.317230373620987,-0.245893150568008,-0.178633600473404,-0.234363496303558
34,-0.163805976510048,-0.0704121962189674,-0.314079016447067,-0.245078548789024,-0.180720686912537,-0.233751818537712
35,-0.169123977422714,-0.07350754737854,-0.311808556318283,-0.244943276047707,-0.184066861867905,-0.234381690621376
36,-0.171773999929428,-0.0754116103053093,-0.308329552412033,-0.244743034243584,-0.185153812170029,-0.23601371049881
37,-0.170225366950035,-0.07651087641716,-0.302607357501984,-0.244986936450005,-0.181541278958321,-0.239448428153992
38,-0.167234152555466,-0.0771226957440376,-0.295708000659943,-0.246169328689575,-0.176725432276726,-0.243484318256378
39,-0.165078714489937,-0.076683796942234,-0.288289278745651,-0.246466293931007,-0.17354154586792,-0.244033619761467
40,-0.162255868315697,-0.0737437084317207,-0.279838562011719,-0.243796914815903,-0.170004859566689,-0.239638060331345
41,-0.15705643594265,-0.0671107172966003,-0.271204918622971,-0.238672167062759,-0.165298700332642,-0.233495935797691
42,-0.148529335856438,-0.0555468909442425,-0.262544721364975,-0.231333702802658,-0.159989267587662,-0.226889491081238
43,-0.137498289346695,-0.0399006009101868,-0.252820581197739,-0.221444860100746,-0.153670772910118,-0.218583881855011
44,-0.127554684877396,-0.0242773611098528,-0.243781343102455,-0.2115159034729,-0.147765219211578,-0.209966316819191
45,-0.120454996824265,-0.0118472799658775,-0.237622305750847,-0.204390943050385,-0.144668027758598,-0.20314659178257
46,-0.115285709500313,-0.00289534404873848,-0.233996048569679,-0.200096055865288,-0.144653588533401,-0.198147013783455
47,-0.112913340330124,0.00244016922079027,-0.232784748077393,-0.198454424738884,-0.147648960351944,-0.19544492661953
48,-0.114241354167461,0.00401671230792999,-0.233604237437248,-0.198976337909698,-0.152623489499092,-0.195641070604324
49,-0.1169228926301,0.00360930943861604,-0.234069168567657,-0.198977649211884,-0.155987828969955,-0.196557253599167
50,-0.118959546089172,0.00268177827820182,-0.233106642961502,-0.197107151150703,-0.156223058700562,-0.196052238345146
51,-0.120930850505829,0.000945191306527704,-0.232081457972527,-0.194628283381462,-0.155350908637047,-0.194913223385811
52,-0.122964434325695,-0.00130211189389229,-0.231063023209572,-0.191868662834167,-0.154637098312378,-0.193987801671028
53,-0.1245286911726,-0.00358388922177255,-0.22925391793251,-0.188843727111816,-0.154812127351761,-0.192949950695038
54,-0.125376999378204,-0.00552642811089754,-0.227522179484367,-0.186742544174194,-0.156427145004272,-0.190955027937889
55,-0.124254308640957,-0.00613544834777713,-0.225999101996422,-0.185034766793251,-0.156807422637939,-0.186387613415718
56,-0.120079703629017,-0.00516944378614426,-0.223002299666405,-0.181185498833656,-0.15340667963028,-0.178477063775063
57,-0.113398134708405,-0.00302552385255694,-0.217736810445786,-0.174167901277542,-0.146903336048126,-0.169126644730568
58,-0.106657467782497,-0.00102208845783025,-0.211401268839836,-0.165790751576424,-0.13896507024765,-0.161827012896538
59,-0.102816969156265,-0.00112653232645243,-0.205662533640862,-0.158465355634689,-0.132014080882072,-0.158535167574883
60,-0.102535553276539,-0.00368636846542358,-0.20109823346138,-0.153060331940651,-0.127626955509186,-0.158286184072495
61,-0.103246867656708,-0.00611102068796754,-0.197090029716492,-0.148791804909706,-0.123492904007435,-0.157854855060577
62,-0.102089233696461,-0.00543711986392736,-0.192795485258102,-0.144534066319466,-0.117383010685444,-0.15491396188736
63,-0.0997275188565254,-0.00259228912182152,-0.187827482819557,-0.139814853668213,-0.1107182726264,-0.150304421782494
64,-0.097777858376503,0.000212386352359317,-0.182100623846054,-0.134407311677933,-0.104776933789253,-0.144784241914749
65,-0.0962027683854103,0.00218683364801109,-0.17641843855381,-0.128935590386391,-0.0994861721992493,-0.138277783989906
66,-0.0954160094261169,0.00161882676184177,-0.172357246279716,-0.125390127301216,-0.0957482755184174,-0.132587596774101
67,-0.095236100256443,-0.00208014296367764,-0.169733017683029,-0.124688982963562,-0.0938357710838318,-0.129122734069824
68,-0.0935037583112717,-0.00543621182441711,-0.16620896756649,-0.124719262123108,-0.0919313579797745,-0.126065611839294
69,-0.0893107578158379,-0.0052871354855597,-0.160564914345741,-0.122849158942699,-0.0893343538045883,-0.122067302465439
70,-0.0830451250076294,-0.00153027684427798,-0.1528709679842,-0.117793329060078,-0.0854466930031776,-0.116926677525043
71,-0.075150303542614,0.00384695874527097,-0.143950492143631,-0.110250174999237,-0.0791526585817337,-0.110315568745136
72,-0.0679184198379517,0.00667794933542609,-0.137020513415337,-0.103918895125389,-0.0732098594307899,-0.105389565229416
73,-0.0643307417631149,0.00372055312618613,-0.135385498404503,-0.102387867867947,-0.0719948336482048,-0.106330946087837
74,-0.0644140616059303,-0.00426957663148642,-0.138287305831909,-0.104875646531582,-0.0748896971344948,-0.111914709210396
75,-0.0653538703918457,-0.0140687255188823,-0.142251998186111,-0.107494831085205,-0.0775855779647827,-0.116860367357731
76,-0.065462589263916,-0.0229321885854006,-0.145140811800957,-0.107564762234688,-0.0785651355981827,-0.117628380656242
77,-0.0653444156050682,-0.029903182759881,-0.146860659122467,-0.105040356516838,-0.0791654661297798,-0.114591561257839
78,-0.0659649893641472,-0.0352556109428406,-0.148342400789261,-0.101595811545849,-0.0800374075770378,-0.110267117619514
79,-0.0668131485581398,-0.038994338363409,-0.150378748774529,-0.0986748039722443,-0.08113943785429,-0.105998896062374
80,-0.0666931569576263,-0.0411687940359116,-0.153345838189125,-0.096696712076664,-0.0826029106974602,-0.102094098925591
81,-0.0651638731360435,-0.0424312800168991,-0.156564012169838,-0.0952267870306969,-0.0834478512406349,-0.099042534828186
82,-0.0626395791769028,-0.0435370653867722,-0.158922895789146,-0.0934568643569946,-0.0827317163348198,-0.0966306030750275
83,-0.0606297440826893,-0.0453840121626854,-0.160580158233643,-0.0910943895578384,-0.0812087878584862,-0.0940928310155869
84,-0.0593897737562656,-0.0485079474747181,-0.16141402721405,-0.088297925889492,-0.0780085995793343,-0.090949259698391
85,-0.0575214065611362,-0.0522924363613129,-0.161198884248734,-0.0854816883802414,-0.0717075318098068,-0.0875134691596031
86,-0.0558017939329147,-0.0553539097309113,-0.161237522959709,-0.0828369706869125,-0.0652771517634392,-0.0836096107959747
87,-0.0566785894334316,-0.0572539381682873,-0.162776097655296,-0.0805365443229675,-0.0633580461144447,-0.0797482877969742
88,-0.0598545409739017,-0.058529656380415,-0.165354520082474,-0.0791880264878273,-0.0661554634571075,-0.0778355896472931
89,-0.0623674914240837,-0.0591467991471291,-0.167229473590851,-0.0786716043949127,-0.0691708326339722,-0.0769169330596924
90,-0.0617759935557842,-0.0587345734238625,-0.166097953915596,-0.077499695122242,-0.0683683082461357,-0.0743401348590851
91,-0.0580375976860523,-0.0584298670291901,-0.161340594291687,-0.0750459432601929,-0.0636660605669022,-0.0710931569337845
92,-0.053140964359045,-0.0599050112068653,-0.155111998319626,-0.0721103399991989,-0.057537529617548,-0.0692106112837791
93,-0.0487978234887123,-0.0626175031065941,-0.149340629577637,-0.0689732879400253,-0.0524803809821606,-0.0675950646400452
94,-0.0453525595366955,-0.0649496987462044,-0.144061654806137,-0.0654755458235741,-0.0489221476018429,-0.0656614303588867
95,-0.042315635830164,-0.0664298832416534,-0.13801421225071,-0.0612805522978306,-0.0451134741306305,-0.0653655454516411
96,-0.0391888469457626,-0.0668633803725243,-0.130613625049591,-0.0561144575476646,-0.0402102060616016,-0.0667791217565537
97,-0.0355757996439934,-0.0649415329098701,-0.122459135949612,-0.0496308729052544,-0.0350104831159115,-0.0670425891876221
98,-0.0310447886586189,-0.0594046153128147,-0.113316766917706,-0.040990088135004,-0.029171172529459,-0.0635125115513802
99,-0.0257172044366598,-0.0511604174971581,-0.102876402437687,-0.0307450890541077,-0.0209652576595545,-0.0559533126652241
100,-0.0201698150485754,-0.0429103411734104,-0.0919513776898384,-0.0206422433257103,-0.0109750237315893,-0.0470288693904877
101,-0.0143256084993482,-0.0362693071365356,-0.0813995823264122,-0.0108994524925947,-0.00244512432254851,-0.0385170988738537
102,-0.00878552719950676,-0.0318985171616077,-0.0718816369771957,-0.0015109283849597,0.00246069766581059,-0.0301822703331709
103,-0.00476696994155645,-0.0295178852975369,-0.0632597953081131,0.00641997018828988,0.00434744171798229,-0.0224745403975248
104,-0.00172531965654343,-0.0261929258704185,-0.0544041953980923,0.0133361062034965,0.00521920761093497,-0.0152400750666857
105,0.00164279714226723,-0.0211113207042217,-0.0449802652001381,0.0205210242420435,0.00663664052262902,-0.0087209502235055
106,0.00688239419832826,-0.0171193834394217,-0.0349652692675591,0.0279191043227911,0.00989498943090439,-0.00453188922256231
107,0.0150599349290133,-0.0148718459531665,-0.0245691686868668,0.0352786891162395,0.0149852465838194,-0.00202289223670959
108,0.0236845090985298,-0.012995233759284,-0.0161957871168852,0.0421108156442642,0.0182830952107906,0.00142551853787154
109,0.0290839839726686,-0.0112118143588305,-0.0119357388466597,0.0476959124207497,0.016525698825717,0.00669913413003087
110,0.0317542999982834,-0.00980527885258198,-0.0104895615950227,0.0523553490638733,0.0130130220204592,0.0124411983415484
111,0.0343860574066639,-0.00870409235358238,-0.00935964845120907,0.0572599768638611,0.0140003375709057,0.0177650190889835
112,0.0377057977020741,-0.0075481915846467,-0.00706099905073643,0.0634589046239853,0.0211504399776459,0.0229066275060177
113,0.0415335968136787,-0.00616466626524925,-0.00300432904623449,0.0714199766516685,0.0311521999537945,0.027925843372941
114,0.0470298640429974,-0.00393863581120968,0.00311646144837141,0.0815812274813652,0.04028095677495,0.0335272178053856
115,0.0556915551424026,0.00101458514109254,0.0110769374296069,0.0942161753773689,0.047897532582283,0.0413003638386726
116,0.0669540911912918,0.00938982423394918,0.0193773619830608,0.107986934483051,0.0550417564809322,0.0518560744822025
117,0.0797610282897949,0.0188757982105017,0.0271167848259211,0.12078458070755,0.0609975270926952,0.0643342435359955
118,0.0942858979105949,0.0266343168914318,0.0343043282628059,0.131484478712082,0.0639109537005425,0.0762873962521553
119,0.108414597809315,0.0322853587567806,0.0403881296515465,0.140085339546204,0.0652077198028564,0.0851941257715225
120,0.117724105715752,0.0376371890306473,0.0451823621988297,0.147455886006355,0.069164477288723,0.091755710542202
121,0.119973123073578,0.0423822700977325,0.0478151328861713,0.152768954634666,0.0760145336389542,0.0957336127758026
122,0.116883724927902,0.045841321349144,0.0480354316532612,0.1550512611866,0.0820452570915222,0.0955626368522644
123,0.113365471363068,0.05144302546978,0.0492858998477459,0.15757329761982,0.0869024023413658,0.0942687690258026
124,0.114216879010201,0.0624044127762318,0.0554811991751194,0.165223360061646,0.0954028740525246,0.0963780507445335
125,0.120121650397778,0.0784124583005905,0.0667420104146004,0.179781854152679,0.109447859227657,0.104795396327972
126,0.129408329725266,0.0959569960832596,0.0808625966310501,0.198728963732719,0.126134291291237,0.118249110877514
127,0.141572669148445,0.111479058861732,0.0957315564155579,0.218370497226715,0.143870294094086,0.132932275533676
128,0.155471801757813,0.12582029402256,0.109649501740932,0.238237664103508,0.161091759800911,0.14998322725296
129,0.168931514024735,0.140494376420975,0.122585989534855,0.259618103504181,0.176206707954407,0.170299977064133
130,0.180926367640495,0.153975024819374,0.134707808494568,0.281011551618576,0.189106851816177,0.189546495676041
131,0.191126465797424,0.163243129849434,0.143986165523529,0.297780185937881,0.199533313512802,0.201661497354507
132,0.199162542819977,0.166927769780159,0.147452652454376,0.305832892656326,0.206413745880127,0.202852636575699
133,0.20537406206131,0.167646959424019,0.144861713051796,0.306340843439102,0.209870010614395,0.197001084685326
134,0.211243435740471,0.168343275785446,0.141074702143669,0.305341482162476,0.21354815363884,0.191701546311378
135,0.218005254864693,0.169067814946175,0.141362175345421,0.307722836732864,0.220963507890701,0.18934528529644
136,0.226737216114998,0.170365259051323,0.146786957979202,0.314874559640884,0.234001070261002,0.188756063580513
137,0.23750638961792,0.173164412379265,0.154541447758675,0.324569314718246,0.252302527427673,0.188021585345268
138,0.247810959815979,0.174707770347595,0.159055083990097,0.331043481826782,0.268789857625961,0.18370433151722
139,0.258424013853073,0.173005595803261,0.157891124486923,0.331677734851837,0.274963438510895,0.175478920340538
140,0.27209210395813,0.169771432876587,0.154465422034264,0.329112499952316,0.270489007234573,0.166753023862839
141,0.284210592508316,0.165209889411926,0.152243301272392,0.324261426925659,0.263852626085281,0.158337324857712
142,0.288960158824921,0.158858403563499,0.151828452944756,0.315038621425629,0.261776328086853,0.148953855037689
143,0.285930037498474,0.154193952679634,0.152129396796227,0.301114022731781,0.25847727060318,0.140005558729172
144,0.273300319910049,0.155609712004662,0.148809552192688,0.285369783639908,0.243111461400986,0.136158525943756
145,0.253645151853561,0.162518173456192,0.13729827105999,0.271909803152084,0.212987557053566,0.139228045940399
146,0.238868191838264,0.170894339680672,0.123513855040073,0.264018505811691,0.175825566053391,0.142894089221954
147,0.236362367868423,0.180046528577805,0.122249834239483,0.26486149430275,0.147485181689262,0.143025055527687
148,0.243519842624664,0.190966904163361,0.138036444783211,0.275268197059631,0.14293310046196,0.144955307245255
149,0.251385688781738,0.200993165373802,0.159799218177795,0.290221333503723,0.163378313183784,0.153339952230453
150,0.251111656427383,0.208287686109543,0.177522227168083,0.304564118385315,0.194438457489014,0.166742235422134
151,0.244341641664505,0.215526133775711,0.189518809318542,0.317100763320923,0.219885960221291,0.181648433208466
152,0.240415185689926,0.224722728133202,0.197299316525459,0.327107965946198,0.236034646630287,0.194888904690742
153,0.241735115647316,0.230947062373161,0.202461838722229,0.332606106996536,0.247108489274979,0.202764376997948
154,0.241237431764603,0.227311804890633,0.205542951822281,0.332156866788864,0.254538327455521,0.203622311353683
155,0.238268107175827,0.216937974095345,0.206583797931671,0.326902478933334,0.255638271570206,0.200497642159462
156,0.240556284785271,0.208210110664368,0.205883622169495,0.319221287965775,0.246942818164825,0.196215093135834
157,0.245242789387703,0.201788276433945,0.203963577747345,0.309354513883591,0.22804819047451,0.190701976418495
158,0.241550713777542,0.193525150418282,0.20143648982048,0.296586126089096,0.203259468078613,0.182494923472404
159,0.22968515753746,0.183240219950676,0.199961602687836,0.283667892217636,0.180733650922775,0.17094449698925
160,0.219822704792023,0.174197196960449,0.202226579189301,0.27623188495636,0.168502077460289,0.159625008702278
161,0.21938256919384,0.167964413762093,0.206754669547081,0.275726944208145,0.167862713336945,0.153080120682716
162,0.229053199291229,0.164650186896324,0.211099520325661,0.276888787746429,0.176419109106064,0.151661857962608
163,0.24512442946434,0.164204716682434,0.220004469156265,0.274103552103043,0.197013899683952,0.15018966794014
164,0.264062702655792,0.166115030646324,0.234047308564186,0.268781214952469,0.227699741721153,0.146102622151375
165,0.282994776964188,0.170548006892204,0.242293238639832,0.268445938825607,0.253533065319061,0.148113921284676
166,0.295491307973862,0.178065434098244,0.238408118486404,0.2765973508358,0.260830074548721,0.16313873231411
167,0.295450329780579,0.189448982477188,0.226942285895348,0.287390410900116,0.245758444070816,0.183922231197357
168,0.282149195671082,0.199116766452789,0.210943952202797,0.29066726565361,0.210426941514015,0.197200104594231
169,0.263108134269714,0.196996167302132,0.189164191484451,0.28327265381813,0.165462121367455,0.198149457573891
170,0.249190956354141,0.19011963903904,0.169296756386757,0.276417523622513,0.137069404125214,0.196338728070259
171,0.241681307554245,0.198560625314713,0.168274879455566,0.283569753170013,0.14777584373951,0.205723196268082
172,0.236862242221832,0.226190447807312,0.191630855202675,0.305572748184204,0.190179616212845,0.229817166924477
173,0.235096216201782,0.254849791526794,0.222557082772255,0.331812024116516,0.236621782183647,0.25677764415741
174,0.237642198801041,0.265666961669922,0.23966446518898,0.348923593759537,0.265735566616058,0.269936114549637
175,0.24564354121685,0.262247681617737,0.243055254220963,0.353363513946533,0.27648201584816,0.267966330051422
176,0.257355391979218,0.261436700820923,0.248604208230972,0.354582250118256,0.277302205562592,0.264059036970139
177,0.266180336475372,0.265019625425339,0.258694142103195,0.361067742109299,0.269323498010635,0.262826263904572
178,0.267738550901413,0.259944260120392,0.259134858846664,0.36606153845787,0.251735091209412,0.255267173051834
179,0.265024065971375,0.239739552140236,0.245678439736366,0.356099545955658,0.231868609786034,0.239344865083694
180,0.26369246840477,0.213910341262817,0.233764007687569,0.334816873073578,0.219204604625702,0.227955162525177
181,0.264729350805283,0.19687856733799,0.236383706331253,0.319871097803116,0.217822313308716,0.229102239012718
182,0.266600906848907,0.192976698279381,0.248845458030701,0.316099762916565,0.225844785571098,0.235975712537766
183,0.270420461893082,0.191485032439232,0.25788801908493,0.307646840810776,0.233979448676109,0.236552178859711
184,0.276042968034744,0.177660569548607,0.256220191717148,0.281035333871841,0.233410820364952,0.223221749067307
185,0.276198357343674,0.15099324285984,0.248793631792068,0.24347098171711,0.230514332652092,0.197347611188889
186,0.264293372631073,0.124594479799271,0.244175419211388,0.21137347817421,0.23728258907795,0.167218491435051
187,0.244909718632698,0.109190419316292,0.243929594755173,0.194585874676704,0.250358998775482,0.144645616412163
188,0.226499959826469,0.105476565659046,0.245873495936394,0.192968130111694,0.256513923406601,0.13792259991169
189,0.211682066321373,0.108892105519772,0.248904079198837,0.197776019573212,0.250409185886383,0.145222052931786
190,0.199282065033913,0.113571673631668,0.250291049480438,0.196414396166801,0.235837951302528,0.154798522591591
191,0.189332783222198,0.114784330129623,0.247604757547379,0.184883058071136,0.217567384243011,0.154022127389908
192,0.182445213198662,0.11297918856144,0.244194462895393,0.173362359404564,0.198932617902756,0.144347369670868
193,0.178947925567627,0.110616445541382,0.244450464844704,0.169924214482307,0.182200416922569,0.137658566236496
194,0.181326061487198,0.10739278793335,0.246616780757904,0.16999663412571,0.168601647019386,0.139518290758133
195,0.184285148978233,0.101454555988312,0.246397599577904,0.16826619207859,0.157389178872108,0.146368399262428
196,0.172697558999062,0.0907448008656502,0.242326498031616,0.163312077522278,0.145594611763954,0.1514732837677
197,0.144781216979027,0.074795238673687,0.234476178884506,0.152722924947739,0.130912944674492,0.151516050100327
198,0.115443915128708,0.0572218336164951,0.224173754453659,0.13663475215435,0.113522164523602,0.147390320897102
199,0.0959751158952713,0.0423475354909897,0.213822931051254,0.118195563554764,0.0967194139957428,0.138904944062233
200,0.0865266248583794,0.0306227076798677,0.203214675188065,0.0983614102005959,0.0864381417632103,0.124454453587532
201,0.0823721289634705,0.0195367690175772,0.188588336110115,0.0736963748931885,0.0849863514304161,0.10152804851532
202,0.0831276550889015,0.00774642825126648,0.168813928961754,0.0421337895095348,0.0840637311339378,0.0696246698498726
203,0.0890776813030243,-0.00187560636550188,0.154473528265953,0.0130021777004004,0.0771005973219872,0.0375243872404099
204,0.0934786647558212,-0.00322819803841412,0.157929614186287,0.00148171000182629,0.0713419616222382,0.022956095635891
205,0.0936711654067039,0.00579817406833172,0.174056395888329,0.010349472053349,0.072100356221199,0.0354821570217609
206,0.0909616127610207,0.0174929369240999,0.186106830835342,0.028755784034729,0.0729226917028427,0.0635272562503815
207,0.076761782169342,0.0235834922641516,0.183166146278381,0.0471705198287964,0.0654661133885384,0.0899431332945824
208,0.0464164949953556,0.0242000091820955,0.168840557336807,0.0595558807253838,0.0479156374931335,0.106733232736588
209,0.0120995761826634,0.0208584740757942,0.154103726148605,0.0588689967989922,0.0269792936742306,0.110552951693535
210,-0.0138309560716152,0.0145196914672852,0.144034773111343,0.0447306260466576,0.0138162542134523,0.100400343537331
211,-0.0285661946982145,0.00989284459501505,0.138818860054016,0.0260574389249086,0.0141773838549852,0.0796676874160767
212,-0.0284683518111706,0.0107816597446799,0.138311624526978,0.0129238208755851,0.0236812382936478,0.0571401454508305
213,-0.0090979440137744,0.0150310033932328,0.138521954417229,0.00861361529678106,0.0327837876975536,0.0427724495530128
214,0.0267714280635118,0.0162129253149033,0.130142167210579,0.00663302093744278,0.0340546183288097,0.0410057827830315
215,0.0708896145224571,0.0114562744274735,0.111195042729378,0.00202364614233375,0.0290217846632004,0.0494921542704105
216,0.104243114590645,0.00434583006426692,0.0973485112190247,0.000774915621150285,0.0270709600299597,0.0623300634324551
217,0.10757739841938,0.000670888344757259,0.107238814234734,0.0115113062784076,0.0376214012503624,0.0771013125777245
218,0.0886890292167664,0.00534754991531372,0.138961374759674,0.0338676534593105,0.0615089014172554,0.0960298031568527
219,0.0707103088498116,0.0169113595038652,0.171288475394249,0.0580422542989254,0.0894940420985222,0.118498109281063
220,0.061418492347002,0.0278560649603605,0.185649916529655,0.0749141797423363,0.109579011797905,0.136834710836411
221,0.0529658608138561,0.0363322272896767,0.177416086196899,0.0805887430906296,0.111718483269215,0.141933858394623
222,0.0406367629766464,0.0516843684017658,0.153968721628189,0.074554368853569,0.0939446166157722,0.132521033287048
223,0.0286359675228596,0.0797985196113586,0.131047070026398,0.0636131465435028,0.0692543610930443,0.119402371346951
224,0.0212398041039705,0.107124947011471,0.1207505017519,0.0573158077895641,0.0555500686168671,0.114651091396809
225,0.0227673053741455,0.113385282456875,0.122534647583961,0.0579486303031445,0.0594999678432941,0.118654288351536
226,0.0429514683783054,0.0960427895188332,0.132440879940987,0.0641299188137054,0.0782619342207909,0.126066505908966
227,0.0847138687968254,0.0679869428277016,0.146161809563637,0.0732129961252213,0.103267371654511,0.133574157953262
228,0.125597506761551,0.0398069433867931,0.15638056397438,0.0798936560750008,0.12138793617487,0.138169631361961
229,0.136800676584244,0.0177983548492193,0.163029402494431,0.0825424715876579,0.126169636845589,0.138042658567429
230,0.121739633381367,0.00852763466536999,0.172468796372414,0.0871752351522446,0.122181162238121,0.137744054198265
231,0.102468445897102,0.0138019546866417,0.182172670960426,0.0987206846475601,0.11550859361887,0.143821224570274
232,0.0869832560420036,0.0280386637896299,0.183748558163643,0.113083131611347,0.109660133719444,0.155256912112236
233,0.0742872729897499,0.0458390340209007,0.176395520567894,0.123200431466103,0.108237147331238,0.166933178901672
234,0.0652885138988495,0.0678698271512985,0.164959132671356,0.128020897507668,0.111132889986038,0.178641796112061
235,0.0610177032649517,0.0964447408914566,0.153107598423958,0.133089229464531,0.11316529661417,0.193561598658562
236,0.0638595372438431,0.126242056488991,0.141615882515907,0.140308901667595,0.110468149185181,0.210821926593781
237,0.0751064494252205,0.144853100180626,0.131489843130112,0.142307728528976,0.103320620954037,0.224740475416183
238,0.0878198891878128,0.142846927046776,0.127270355820656,0.134006932377815,0.0962977483868599,0.22920435667038
239,0.0944780111312866,0.122224755585194,0.128969699144363,0.119424410164356,0.0941224619746208,0.222361460328102
240,0.0959441289305687,0.0954979211091995,0.1291134506464,0.105567522346973,0.094586968421936,0.209573656320572
241,0.0972225368022919,0.0736311003565788,0.125597015023232,0.0959605872631073,0.0931740328669548,0.199330270290375
242,0.10029736161232,0.0640584900975227,0.125775337219238,0.0914245173335075,0.0926795154809952,0.194310709834099
243,0.105112187564373,0.072363592684269,0.135820880532265,0.0971919894218445,0.0996473133563995,0.194116309285164
244,0.114157162606716,0.0930524468421936,0.157050415873528,0.117074221372604,0.116107374429703,0.202562302350998
245,0.124582663178444,0.111336328089237,0.185376837849617,0.140058517456055,0.137404426932335,0.217294469475746
246,0.12688210606575,0.114942207932472,0.205386057496071,0.149599477648735,0.153718203306198,0.224733918905258
247,0.117120802402496,0.101794674992561,0.203299850225449,0.141760766506195,0.15946289896965,0.213637322187424
248,0.0993980690836906,0.0795282647013664,0.183565810322762,0.124678201973438,0.157328844070435,0.18720668554306
249,0.0803594067692757,0.0572715327143669,0.158506691455841,0.10886088013649,0.149769529700279,0.161393731832504
250,0.0662799850106239,0.0405765846371651,0.135433614253998,0.10095039755106,0.138559848070145,0.147148966789246
251,0.0652817562222481,0.0323704741895199,0.118190228939056,0.102335251867771,0.129580989480019,0.141734570264816
252,0.0817514806985855,0.0327212288975716,0.108484677970409,0.108960509300232,0.125971496105194,0.139730796217918
253,0.10383016616106,0.0383150689303875,0.10460752248764,0.113006122410297,0.122797794640064,0.138384535908699
254,0.112057588994503,0.0448301397264004,0.103259533643723,0.109953612089157,0.113680094480515,0.136751174926758
255,0.10102941095829,0.0488667711615562,0.101545192301273,0.102223977446556,0.0974610522389412,0.136188119649887
256,0.0822811871767044,0.0467195622622967,0.0976992249488831,0.0938917323946953,0.0793644860386848,0.136190578341484
257,0.0685469880700111,0.0368217043578625,0.0935658887028694,0.087472677230835,0.0659090653061867,0.134711444377899
258,0.0637448206543922,0.0240848623216152,0.0935133695602417,0.0852138996124268,0.0589129589498043,0.132689565420151
259,0.0636058524250984,0.0164377614855766,0.097506195306778,0.0868439599871635,0.0557772852480412,0.133020102977753
260,0.059787530452013,0.0176727883517742,0.101483657956123,0.0895262211561203,0.0530798994004726,0.137141883373261
261,0.0503327324986458,0.0228711031377316,0.103793576359749,0.0919309183955193,0.0497828871011734,0.143210217356682
262,0.0419691391289234,0.024674953892827,0.105079516768456,0.0950088351964951,0.0484235771000385,0.148139283061028
263,0.0394362770020962,0.0228820741176605,0.105595506727695,0.0995779857039452,0.0519641637802124,0.150461778044701
264,0.0412939749658108,0.0214511323720217,0.105561509728432,0.104685738682747,0.0588004067540169,0.149330660700798
265,0.0448212809860706,0.0225649513304234,0.105144366621971,0.108893804252148,0.0642075762152672,0.144755244255066
266,0.0486684516072273,0.0259111858904362,0.104137793183327,0.111157856881619,0.0668982341885567,0.138881802558899
267,0.0511308461427689,0.0297713838517666,0.101804435253143,0.110535152256489,0.0682604387402534,0.134456738829613
268,0.0509227514266968,0.0331296734511852,0.0980762392282486,0.107978783547878,0.0684232711791992,0.134179562330246
269,0.0493937842547894,0.0359466150403023,0.094468928873539,0.10577654838562,0.0670843943953514,0.138936594128609
270,0.0482102744281292,0.0379260331392288,0.0919928178191185,0.104452222585678,0.0638984441757202,0.145752087235451
271,0.0472158268094063,0.0376956835389137,0.0901505127549171,0.102517351508141,0.058378804475069,0.150730952620506
272,0.0464245155453682,0.0343600288033485,0.0888691395521164,0.0991995334625244,0.0517490580677986,0.152262926101685
273,0.0460229851305485,0.0293801501393318,0.0889880806207657,0.0954183414578438,0.0469900108873844,0.149355933070183
274,0.043884664773941,0.0242424886673689,0.0892154350876808,0.0917124673724175,0.0448153205215931,0.140925422310829
275,0.0381303839385509,0.0202602110803127,0.0868116021156311,0.0887248888611794,0.0427597723901272,0.129537612199783
276,0.0319661982357502,0.0195690728724003,0.0819867104291916,0.0884468406438828,0.0395672880113125,0.121265523135662
277,0.0293805822730064,0.0222316291183233,0.0768646076321602,0.0915542244911194,0.0357765704393387,0.119621217250824
278,0.027964835986495,0.025931054726243,0.0719856470823288,0.0954910144209862,0.0310286711901426,0.122167780995369
279,0.0242413356900215,0.0275867506861687,0.0662563443183899,0.0966018214821815,0.0251062829047441,0.122555047273636
280,0.021863354369998,0.0251806080341339,0.0593173168599606,0.0932477936148643,0.0203897226601839,0.115756258368492
281,0.0253496076911688,0.0216764267534018,0.0533206947147846,0.0880420207977295,0.0189793147146702,0.10475318133831
282,0.0313354767858982,0.0228397566825151,0.0511371567845345,0.0857804715633392,0.0190329309552908,0.097852848470211
283,0.0354410372674465,0.0313675776124001,0.0549754351377487,0.0891803577542305,0.0202664528042078,0.0994109511375427
284,0.0374108664691448,0.0448661707341671,0.0637301504611969,0.096594899892807,0.0254469718784094,0.107284463942051
285,0.036313883960247,0.0569935627281666,0.0715758800506592,0.102883294224739,0.0335863418877125,0.115767389535904
286,0.033093523234129,0.0635796412825584,0.0745220854878426,0.105504147708416,0.0403120219707489,0.122362866997719
287,0.0318004749715328,0.064816877245903,0.0729903504252434,0.105980195105076,0.0418219156563282,0.127895087003708
288,0.033340472728014,0.0613397806882858,0.0680077895522118,0.105070888996124,0.0362445786595345,0.130660861730576
289,0.0338478088378906,0.0542848110198975,0.0613878257572651,0.102963507175446,0.0249800588935614,0.128279864788055
290,0.0309869237244129,0.0472067557275295,0.0576647743582726,0.102162338793278,0.0135580357164145,0.121757335960865
291,0.0283261127769947,0.0442012511193752,0.0595392137765884,0.104679942131042,0.00762495305389166,0.115353427827358
292,0.0284925755113363,0.0453878454864025,0.0642087757587433,0.108361355960369,0.00920184981077909,0.112234994769096
293,0.0294097661972046,0.047811184078455,0.0688793212175369,0.111262276768684,0.0176425538957119,0.11236147582531
294,0.0295283626765013,0.0498363003134727,0.0728532075881958,0.115504696965218,0.028098164126277,0.114971131086349
295,0.0298764295876026,0.0509791448712349,0.075114019215107,0.122695818543434,0.0335112847387791,0.119517914950848
296,0.0321426950395107,0.0510568171739578,0.0757316872477531,0.129997849464417,0.0315360687673092,0.1244737803936
297,0.0365472212433815,0.0508195646107197,0.0751897320151329,0.133414730429649,0.0245363097637892,0.126995205879211
298,0.0426740869879723,0.0528550148010254,0.0728693604469299,0.132431641221046,0.0169858541339636,0.126190721988678
299,0.0508450567722321,0.0602081418037415,0.0693454965949059,0.129584804177284,0.0140508227050304,0.124385036528111
300,0.0590903200209141,0.0701929554343224,0.0664442554116249,0.127411141991615,0.0172823816537857,0.123835012316704
301,0.0631963312625885,0.0747489705681801,0.0646912455558777,0.126793429255486,0.023388534784317,0.124670423567295
302,0.0620391219854355,0.0692384466528893,0.0620431564748287,0.12640206515789,0.0268750861287117,0.12480453401804
303,0.057329136878252,0.055512510240078,0.0551490448415279,0.123715095221996,0.023298867046833,0.121173217892647
304,0.050752580165863,0.0384970940649509,0.0440412349998951,0.118319481611252,0.0135894753038883,0.112012229859829
305,0.0437170304358006,0.0223372578620911,0.0331203080713749,0.112590685486794,0.00310345576144755,0.0983679890632629
306,0.0372229963541031,0.0104593206197023,0.0254593472927809,0.109771639108658,-0.0050021386705339,0.0857406631112099
307,0.0318159274756908,0.00525473617017269,0.0198851618915796,0.111661545932293,-0.0114643014967442,0.0802202597260475
308,0.0273600611835718,0.00414536753669381,0.0142892803996801,0.115954399108887,-0.0163844563066959,0.0812016949057579
309,0.0264268927276134,0.00348609848879278,0.00937147252261639,0.119756579399109,-0.017516428604722,0.0859300196170807
310,0.0312241539359093,0.00314101809635758,0.00672395201399922,0.122752070426941,-0.0141347972676158,0.0935635268688202
311,0.0372277162969112,0.0040057897567749,0.00616594543680549,0.124799571931362,-0.0081460727378726,0.101319700479507
312,0.040180716663599,0.00661607598885894,0.00682565942406654,0.125317245721817,-0.000959750264883041,0.10522186011076
313,0.0412019751966,0.0107562076300383,0.00785569380968809,0.123927772045136,0.00677970284596086,0.103345148265362
314,0.0422614626586437,0.0151697704568505,0.0081764031201601,0.120220862329006,0.0138579178601503,0.0962470844388008
315,0.0426860824227333,0.0179829448461533,0.00591808930039406,0.113294743001461,0.0182127058506012,0.0853268951177597
316,0.0408431589603424,0.0193761810660362,0.000773852749262005,0.10414569824934,0.0192257892340422,0.0740751400589943
317,0.0369505807757378,0.021241407841444,-0.0052595091983676,0.0961644574999809,0.0180010125041008,0.0669288635253906
318,0.0333189219236374,0.02372214384377,-0.010871272534132,0.0915825888514519,0.0142797669395804,0.0646390020847321
319,0.0317234992980957,0.0250459294766188,-0.0161277763545513,0.089943453669548,0.00716047268360853,0.06403898447752
320,0.0303945671766996,0.0231002774089575,-0.0216676667332649,0.0889003500342369,-0.00281798210926354,0.0612864419817925
321,0.0277962069958448,0.0186611395329237,-0.0266747660934925,0.0877743139863014,-0.0121661936864257,0.0560348257422447
322,0.0255025587975979,0.0154749229550362,-0.0293948668986559,0.0883215591311455,-0.0169530510902405,0.0510042645037174
323,0.0252559762448072,0.0154168484732509,-0.0298213604837656,0.0905923768877983,-0.0166676416993141,0.0477173998951912
324,0.0281338226050138,0.0176372583955526,-0.0285465773195028,0.0933143198490143,-0.0119739444926381,0.0463050715625286
325,0.0335455611348152,0.0210686959326267,-0.0268140360713005,0.0956224128603935,-0.00481879431754351,0.0464240722358227
326,0.0403905808925629,0.0247353632003069,-0.0268578212708235,0.0966212972998619,0.00164780509658158,0.0475378818809986
327,0.0485686585307121,0.0281444489955902,-0.0290235932916403,0.0963216125965118,0.00636841962113976,0.0515148527920246
328,0.0552268326282501,0.0307945571839809,-0.0319644510746002,0.0949388444423676,0.00926375854760408,0.0592035911977291
329,0.0577765703201294,0.0319983959197998,-0.0332707539200783,0.0930291190743446,0.0114563945680857,0.065971203148365
330,0.058480266481638,0.0319851636886597,-0.0301921293139458,0.0923215076327324,0.0158952735364437,0.0676240622997284
331,0.0596721209585667,0.030257809907198,-0.0234635006636381,0.0933123752474785,0.0227594375610352,0.0645497664809227
332,0.059940192848444,0.0255343485623598,-0.0170740354806185,0.0945644453167915,0.0275543555617332,0.0596106164157391
333,0.0565434768795967,0.0167549587786198,-0.0138446548953652,0.0943049564957619,0.0262389164417982,0.0554418712854385
334,0.0499595031142235,0.00376740540377796,-0.0140363853424788,0.0915592163801193,0.019016781821847,0.0525875315070152
335,0.0446194522082806,-0.00991569831967354,-0.017271414399147,0.0874539837241173,0.00918260589241982,0.0503835491836071
336,0.043628167361021,-0.019921513274312,-0.0232600998133421,0.0834324583411217,0.000798416091129184,0.0485652312636375
337,0.0458739325404167,-0.0257098358124495,-0.030405355617404,0.0794118419289589,-0.00410893140360713,0.0476934909820557
338,0.0527441315352917,-0.0276531539857388,-0.0358311831951141,0.0766246542334557,-0.00551946507766843,0.0476814284920692
339,0.0681078433990479,-0.0262442156672478,-0.037962406873703,0.077053427696228,-0.00324918096885085,0.0468506552278996
340,0.0838242769241333,-0.0260647684335709,-0.0380073115229607,0.0784517824649811,0.00195972877554595,0.0441701114177704
341,0.0842558369040489,-0.0318005904555321,-0.0387023873627186,0.0762910470366478,0.00610081944614649,0.041905976831913
342,0.0694508403539658,-0.0402026772499084,-0.0416425205767155,0.0708752945065498,0.004784872289747,0.0435851700603962
343,0.0527381077408791,-0.0431597419083118,-0.0465171411633492,0.0652884021401405,-0.00118370400741696,0.0480186901986599
344,0.0397349745035172,-0.0382196120917797,-0.0527665019035339,0.0596692301332951,-0.00606598611921072,0.0492551885545254
345,0.0278083197772503,-0.0317446067929268,-0.059240285307169,0.0536511056125164,-0.0063976333476603,0.0426463522017002
346,0.0181235130876303,-0.0319506712257862,-0.0625132769346237,0.0488456934690475,-0.00440104585140944,0.0286933016031981
347,0.0151825845241547,-0.0389176271855831,-0.0589621625840664,0.0472273603081703,-0.00115671323146671,0.0145774874836206
348,0.0194512382149696,-0.0451718084514141,-0.0508043617010117,0.0489092282950878,0.00386051484383643,0.00930560007691383
349,0.0253527984023094,-0.0469856038689613,-0.0442401990294456,0.052575446665287,0.00689926045015454,0.0143024194985628
350,0.0269664824008942,-0.0453499257564545,-0.040520615875721,0.0579965934157372,0.00351372011937201,0.0242774095386267
351,0.0228687692433596,-0.0403027273714542,-0.038236778229475,0.0645906329154968,-0.00675920257344842,0.0347440987825394
352,0.0148889739066362,-0.0324895493686199,-0.0391914397478104,0.0701919347047806,-0.0209346916526556,0.0431989841163158
353,0.00658537028357387,-0.0240370091050863,-0.0445906780660152,0.0725066587328911,-0.0347152352333069,0.0480160117149353
354,0.002045928966254,-0.0169770140200853,-0.0514851287007332,0.0703243613243103,-0.0444901026785374,0.0494303479790688
355,0.00446858489885926,-0.0125984773039818,-0.0541476011276245,0.0653888657689095,-0.0458595082163811,0.0489073134958744
356,0.0135096414014697,-0.0109205702319741,-0.0484703034162521,0.0613270699977875,-0.0361227765679359,0.0480152741074562
357,0.0245768651366234,-0.011248767375946,-0.0360227897763252,0.0598008222877979,-0.0195616353303194,0.0479246452450752
358,0.0333556793630123,-0.0128161897882819,-0.0220648944377899,0.0604595839977264,-0.00322325481101871,0.0487065128982067
359,0.0383446849882603,-0.0141894007101655,-0.0125999022275209,0.0628405287861824,0.0074723451398313,0.0496289655566216
360,0.0411805994808674,-0.0131802195683122,-0.0120354220271111,0.0645460113883018,0.00926513317972422,0.0489819496870041
361,0.0452166832983494,-0.00962722022086382,-0.0195696260780096,0.0611495040357113,0.00312888855114579,0.0441181734204292
362,0.0501338578760624,-0.00691694440320134,-0.0307795293629169,0.0516800880432129,-0.00784423854202032,0.0349740497767925
363,0.0534518547356129,-0.00700987735763192,-0.0403530448675156,0.0417107939720154,-0.0199974123388529,0.0270157586783171
364,0.0551176890730858,-0.00852153263986111,-0.0443226248025894,0.0372989885509014,-0.0292073115706444,0.025122994557023
365,0.0564783848822117,-0.0101260850206017,-0.0427465066313744,0.0388466455042362,-0.0340454578399658,0.0280847921967506
366,0.0575097128748894,-0.0106129962950945,-0.0370784774422646,0.0433122888207436,-0.0355790220201015,0.0329748503863811
367,0.0548205263912678,-0.00915209110826254,-0.0297001414000988,0.0468231290578842,-0.0363689959049225,0.0373439192771912
368,0.0470332242548466,-0.00575942127034068,-0.0240067467093468,0.0468065775930882,-0.0387159585952759,0.0390402674674988
369,0.0385374315083027,-0.000500689435284585,-0.0203818306326866,0.0439827442169189,-0.0409574396908283,0.0380265675485134
370,0.032552182674408,0.00556240556761622,-0.0175069440156221,0.0398834124207497,-0.0411340966820717,0.0361099541187286
371,0.0278860293328762,0.00997553858906031,-0.0156284533441067,0.0351172722876072,-0.0403559803962708,0.0350753739476204
372,0.0243480075150728,0.0104545466601849,-0.0151977175846696,0.0302212834358215,-0.0387087613344193,0.0352721065282822
373,0.0236170832067728,0.00727869104593992,-0.0155002390965819,0.0256428141146898,-0.035272628068924,0.0365755967795849
374,0.0251761917024851,0.00346818496473134,-0.0150449303910136,0.0220232047140598,-0.030578875914216,0.0385627523064613
375,0.0269298907369375,0.00121573323849589,-0.0121144419535995,0.0210533943027258,-0.0256530735641718,0.0398079007863998
376,0.028208190575242,-0.000529180048033595,-0.00627208640798926,0.0238533690571785,-0.0221026688814163,0.0401740334928036
377,0.0296801086515188,-0.00301987514831126,0.00141900801099837,0.0298155508935452,-0.0220553912222385,0.0423293262720108
378,0.0304757114499807,-0.00496687414124608,0.0084235118702054,0.0367658622562885,-0.0269255824387074,0.0482151098549366
379,0.0286804381757975,-0.0050863497890532,0.0112870736047626,0.0405879467725754,-0.0357045345008373,0.0546331293880939
380,0.0254023596644402,-0.0034006976056844,0.0101391356438398,0.0389378294348717,-0.0441826730966568,0.0571242719888687
381,0.0244095921516418,-0.00119948084466159,0.00848756171762943,0.033370453864336,-0.0483460873365402,0.0549720898270607
382,0.0264313519001007,-0.00154871633276343,0.00786276161670685,0.0261618904769421,-0.0474579781293869,0.0487563982605934
383,0.0284504983574152,-0.00437057064846158,0.00802578963339329,0.0205738581717014,-0.0432947836816311,0.0403733924031258
384,0.028372336179018,-0.00438595935702324,0.0093741761520505,0.0200499203056097,-0.0392396487295628,0.0337336510419846
385,0.024855462834239,0.00266324635595083,0.0102984514087439,0.0210293158888817,-0.03994095697999,0.0296270605176687
386,0.0173258949071169,0.0135288126766682,0.00691090803593397,0.0145928915590048,-0.047735583037138,0.0262764375656843
387,0.00890914909541607,0.0171913746744394,-0.000740427989512682,-0.000200387148652226,-0.0582414343953133,0.0255672670900822
388,0.00442993594333529,0.00372732616961002,-0.0102085703983903,-0.0154567351564765,-0.0648331269621849,0.0287401843816042
389,0.00790104363113642,-0.0253075528889894,-0.0208559930324554,-0.0254699736833572,-0.0663407221436501,0.0299917384982109
390,0.020600151270628,-0.0565985627472401,-0.027212992310524,-0.0287693440914154,-0.0650838389992714,0.0242671836167574
391,0.0353768989443779,-0.0780654922127724,-0.0221282932907343,-0.0262735337018967,-0.0625304579734802,0.0143951615318656
392,0.0417285971343517,-0.0873269215226173,-0.00972245074808598,-0.0205079726874828,-0.059404157102108,0.00618236279115081
393,0.0391681455075741,-0.0875015333294868,0.000978991854935884,-0.0131979789584875,-0.0560136400163174,0.00249172816984355
394,0.0366640686988831,-0.0831213518977165,0.0095939701423049,-0.00368021498434246,-0.052502378821373,0.00434278044849634
395,0.0386652238667011,-0.0763413161039352,0.0184707343578339,0.00884388573467731,-0.0498348139226437,0.0141578065231442
396,0.0399321652948856,-0.0639941394329071,0.0255456063896418,0.0206838324666023,-0.0478101000189781,0.0306121800094843
397,0.0361328162252903,-0.0435652546584606,0.0298293586820364,0.0258172862231731,-0.0446698702871799,0.0441778562963009
398,0.0296912044286728,-0.0213638171553612,0.0313350148499012,0.0216276552528143,-0.0419794544577599,0.046597808599472
399,0.0246244948357344,-0.00796650070697069,0.0288345329463482,0.0111670950427651,-0.0435079857707024,0.0399181433022022
400,0.0218381695449352,-0.00664327852427959,0.0242963302880526,0.0011123230215162,-0.0486259050667286,0.0330248773097992
401,0.0219098571687937,-0.0117711098864675,0.0227937605232,-0.00387318851426244,-0.0506648905575275,0.031821683049202
402,0.0265665892511606,-0.0172935929149389,0.026317173615098,-0.00484919222071767,-0.044362373650074,0.0331064276397228
403,0.0335694588720798,-0.0224915910512209,0.0321248546242714,-0.00543346628546715,-0.0329487025737762,0.031511016190052
404,0.038101103156805,-0.0281950999051332,0.0370698384940624,-0.0063625629991293,-0.0235865954309702,0.0270366948097944
405,0.0375397726893425,-0.0330313332378864,0.0388225093483925,-0.00663295574486256,-0.0214092433452606,0.0216612871736288
406,0.0331803113222122,-0.0357231646776199,0.034578874707222,-0.00681730872020125,-0.028874147683382,0.0171675533056259
407,0.0288762599229813,-0.0370046310126781,0.0239628218114376,-0.00846958253532648,-0.044080525636673,0.0145661719143391
408,0.0264748074114323,-0.0389542132616043,0.0117708565667272,-0.0118563249707222,-0.0597808733582497,0.0127161322161555
409,0.0271784532815218,-0.0422220155596733,0.00430627074092627,-0.0153247406706214,-0.0687504857778549,0.0110378926619887
410,0.0321609973907471,-0.0461729168891907,0.00332045974209905,-0.0179601106792688,-0.0683625638484955,0.00982658937573433
411,0.0381120704114437,-0.0502586662769318,0.00665620202198625,-0.0201064627617598,-0.058589544147253,0.00797414314001799
412,0.0390216037631035,-0.0516057536005974,0.0124913556501269,-0.0206124614924192,-0.0433035306632519,0.00485926633700728
413,0.0328958630561829,-0.0466030910611153,0.0191534068435431,-0.0178942009806633,-0.0316089987754822,0.00256984191946685
414,0.0217304434627295,-0.0373409762978554,0.0235732216387987,-0.0145010938867927,-0.0311290603131056,0.00233759731054306
415,0.0079614007845521,-0.0305153485387564,0.0233371965587139,-0.015210684388876,-0.0413589216768742,0.0018591380212456
416,-0.00363180064596236,-0.0287273358553648,0.0189399551600218,-0.0200648866593838,-0.0557308532297611,3.82933867513202E-05
417,-0.00730803748592734,-0.0298536457121372,0.0118237342685461,-0.0254453476518393,-0.0691910460591316,-0.00198193173855543
418,-0.00383107201196253,-0.031445998698473,0.00358546711504459,-0.0293354541063309,-0.079920120537281,-0.00464936625212431
419,-0.000956503150518984,-0.030928822234273,-0.00285717099905014,-0.0309271235018969,-0.0859497413039207,-0.00773584702983499
420,-0.0033375087659806,-0.0279970020055771,-0.00406409706920385,-0.0285466536879539,-0.0851908624172211,-0.00807981565594673
421,-0.00706114992499352,-0.0254974421113729,0.00290929386392236,-0.021057702600956,-0.0779544562101364,-0.00429414212703705
422,-0.00666275853291154,-0.0251468811184168,0.0159857757389545,-0.0105643309652805,-0.0678540244698524,0.00161334034055471
423,-0.00239236908964813,-0.0268299356102943,0.0247156526893377,-0.00246982183307409,-0.0601787157356739,0.00787802506238222
424,0.00260056788101792,-0.0298283807933331,0.0219886600971222,-0.000310759322019294,-0.0572195388376713,0.0134690701961517
425,0.00753634562715888,-0.0332421846687794,0.013924477621913,-0.00227870722301304,-0.0560257509350777,0.0158226527273655
426,0.0117683075368404,-0.037705272436142,0.00845144037157297,-0.00592875992879272,-0.0539446249604225,0.0111893722787499
427,0.0127420211210847,-0.044290617108345,0.00528925284743309,-0.0107655888423324,-0.0529168248176575,-0.000544877664651722
428,0.00973356887698174,-0.0519388914108276,0.00147408223710954,-0.0156020177528262,-0.0553043447434902,-0.0138744385913014
429,0.00497593870386481,-0.0577801503241062,-0.00291045871563256,-0.0183663219213486,-0.0592881329357624,-0.0225492250174284
430,0.000619013386312872,-0.0589291751384735,-0.0058664670214057,-0.0175384990870953,-0.0611256919801235,-0.0234513580799103
431,-0.00296121765859425,-0.0547285676002502,-0.00620944146066904,-0.0134572451934218,-0.0593566261231899,-0.017718181014061
432,-0.00581542123109102,-0.0471928119659424,-0.00441694771870971,-0.0085390554741025,-0.0548988245427608,-0.0105252927169204
433,-0.00706164026632905,-0.0397905670106411,-0.00255845789797604,-0.00605740211904049,-0.0493749901652336,-0.00712907034903765
434,-0.0054977941326797,-0.0371503159403801,-0.00368607579730451,-0.00920058228075504,-0.0459001995623112,-0.00932073686271906
435,-0.00102665554732084,-0.0409767776727676,-0.00901748519390821,-0.0176194962114096,-0.0473241358995438,-0.0145742883905768
436,0.00479577155783772,-0.0470826774835587,-0.0163155030459166,-0.0264816209673882,-0.0517472214996815,-0.0189771447330713
437,0.00977986212819815,-0.0503493770956993,-0.023036515340209,-0.0325170569121838,-0.0551485382020473,-0.0220452770590782
438,0.0108423763886094,-0.0501322150230408,-0.0294495336711407,-0.0369178950786591,-0.0563104189932346,-0.0257327482104301
439,0.00677364552393556,-0.0487561747431755,-0.0363379046320915,-0.0407632999122143,-0.0557834282517433,-0.0295561570674181
440,0.00181024812627584,-0.0467528738081455,-0.0406097061932087,-0.0409285873174667,-0.0530466809868813,-0.0298171117901802
441,-0.000253633770626038,-0.0441229604184628,-0.0384071432054043,-0.0329261757433414,-0.0475876443088055,-0.023724902421236
442,-0.000428612518589944,-0.0417647995054722,-0.0314354747533798,-0.0181244816631079,-0.0410794094204903,-0.0127976695075631
443,0.000284390058368444,-0.0399686023592949,-0.0253396704792976,-0.00605973554775119,-0.0360594876110554,-0.00402234168723226
444,0.00375861441716552,-0.0379244945943356,-0.0229163486510515,-0.00385136599652469,-0.0325920507311821,-0.00278868433088064
445,0.0106968861073256,-0.0340848788619041,-0.0225776638835669,-0.008125314489007,-0.0285020265728235,-0.0055073918774724
446,0.0174207221716642,-0.0293456334620714,-0.022583682090044,-0.0126801868900657,-0.0236032605171204,-0.00756610091775656
447,0.0197751764208078,-0.0268636513501406,-0.0234142877161503,-0.0154811227694154,-0.0200760066509247,-0.00978927779942751
448,0.0174959562718868,-0.0274546463042498,-0.0268778502941132,-0.0179394409060478,-0.0195461362600327,-0.0138013390824199
449,0.0123971346765757,-0.029627587646246,-0.0341331474483013,-0.0224882923066616,-0.0219977758824825,-0.01963578350842
450,0.00577460834756494,-0.0322961732745171,-0.0441886000335217,-0.0300104636698961,-0.0255418997257948,-0.0267254561185837
451,-0.000177704816451296,-0.0346525013446808,-0.0538601465523243,-0.0381801649928093,-0.027063412591815,-0.0333112291991711
452,-0.00240176543593407,-0.036711759865284,-0.0607191622257233,-0.0437457822263241,-0.0261461809277534,-0.0373266339302063
453,0.000706209219060838,-0.0384005568921566,-0.0639797002077103,-0.0450315214693546,-0.0249119959771633,-0.0371421612799168
454,0.00628286972641945,-0.0389848984777927,-0.0645543113350868,-0.0424800887703896,-0.0250455737113953,-0.0324115492403507
455,0.00775905419141054,-0.0390175580978394,-0.0661356076598167,-0.0390334948897362,-0.0278997924178839,-0.0264213234186172
456,0.0039253537543118,-0.0386370159685612,-0.0706991702318192,-0.037443283945322,-0.0313633754849434,-0.0227461066097021
457,0.0016801084857434,-0.0367892906069756,-0.0759336799383163,-0.0382226854562759,-0.0305549036711454,-0.0215510055422783
458,0.0046593826264143,-0.0339060574769974,-0.0797544419765472,-0.04099440574646,-0.0264924895018339,-0.022229665890336
459,0.0083095720037818,-0.033507514744997,-0.0843693912029266,-0.0467052273452282,-0.0265099722892046,-0.027183149009943
460,0.00798680540174246,-0.0385767556726933,-0.0932648181915283,-0.0564890131354332,-0.032945666462183,-0.0396519191563129
461,0.00384213775396347,-0.0462480299174786,-0.104553572833538,-0.06779795140028,-0.0400250256061554,-0.0564847514033318
462,-0.000879507104400545,-0.0493014454841614,-0.110358938574791,-0.0744611918926239,-0.0416665896773338,-0.0687549114227295
463,-0.0038651714567095,-0.0425626263022423,-0.104439295828342,-0.071888655424118,-0.0362222753465176,-0.0704707726836205
464,-0.00481465552002192,-0.026057293638587,-0.0897287949919701,-0.0614474080502987,-0.0261203646659851,-0.0615899562835693
465,-0.00307884532958269,-0.00510201696306467,-0.0754022151231766,-0.0487693510949612,-0.0160021968185902,-0.0462222099304199
466,0.00448434660211205,0.0120507404208183,-0.0662573501467705,-0.0384508334100246,-0.00965926796197891,-0.0297064203768969
467,0.018817575648427,0.0196235589683056,-0.0598650835454464,-0.0316238328814507,-0.00616422155871987,-0.0165071338415146
468,0.0299359131604433,0.0148050859570503,-0.0547972172498703,-0.028174364939332,-0.00317270774394274,-0.0120058255270123
469,0.0277572963386774,-0.00157442968338728,-0.0528776459395885,-0.0281572490930557,-0.0016202850965783,-0.0184352323412895
470,0.0178528260439634,-0.0228902120143175,-0.0539550743997097,-0.031517218798399,-0.00330856186337769,-0.0301730800420046
471,0.011676930822432,-0.0396362319588661,-0.0556037537753582,-0.0367619581520557,-0.00827798247337341,-0.0384915769100189
472,0.0119055174291134,-0.0448121130466461,-0.0566819533705711,-0.0404203981161118,-0.0142390066757798,-0.0382518917322159
473,0.0133766327053308,-0.0395936220884323,-0.0582151040434837,-0.0409886837005615,-0.0178067665547132,-0.030998021364212
474,0.0110465167090297,-0.0313214138150215,-0.0596831701695919,-0.0405306369066238,-0.0169344507157803,-0.0228684395551682
475,0.00524982251226902,-0.0252800397574902,-0.0578168816864491,-0.0409718789160252,-0.0129813514649868,-0.0187389459460974
476,-0.000549044634681195,-0.0224255360662937,-0.0513680912554264,-0.0423565320670605,-0.00986591167747974,-0.0191272180527449
477,-0.00545595027506351,-0.0228021666407585,-0.0436602346599102,-0.0451846532523632,-0.0102892257273197,-0.0237569659948349
478,-0.00866312719881535,-0.0260032191872597,-0.038503460586071,-0.0502802766859531,-0.0130912382155657,-0.0318813361227512
479,-0.00613363878801465,-0.0295909214764833,-0.0360913202166557,-0.0561270415782928,-0.0143614839762449,-0.0396446622908115
480,0.00279713678173721,-0.0305310469120741,-0.0348151847720146,-0.0609129369258881,-0.0124376649037004,-0.0444686003029346
481,0.0112861646339297,-0.0281015150249004,-0.0355012826621532,-0.0653694421052933,-0.011933820322156,-0.0480672530829906
482,0.0128104956820607,-0.0245180204510689,-0.0395292900502682,-0.0704528465867043,-0.0186854638159275,-0.0532156899571419
483,0.0107848132029176,-0.0217626467347145,-0.0434721484780312,-0.0748287513852119,-0.0300871636718512,-0.06012212485075
484,0.0119056915864348,-0.019641837105155,-0.041301392018795,-0.0761563628911972,-0.0379929430782795,-0.0655563324689865
485,0.0160507559776306,-0.0166702698916197,-0.0311894342303276,-0.0732492953538895,-0.0388856939971447,-0.0657616481184959
486,0.0195993427187204,-0.010617402382195,-0.0182746052742004,-0.0664834454655647,-0.0347639881074429,-0.0592472739517689
487,0.0170757379382849,-0.00304235843941569,-0.0106093343347311,-0.0587053373456001,-0.0299528446048498,-0.0490367822349072
488,0.00406901212409139,0.000142708769999444,-0.0115177351981401,-0.0547970458865166,-0.0286148767918348,-0.0419267751276493
489,-0.0146418809890747,-0.00367544661276042,-0.0189758390188217,-0.0578788481652737,-0.0319483019411564,-0.0419430881738663
490,-0.0265230145305395,-0.0137685835361481,-0.02875692024827,-0.0671471208333969,-0.036702424287796,-0.0477802082896233
491,-0.0231471322476864,-0.0258945021778345,-0.0315046086907387,-0.0769796222448349,-0.0350930020213127,-0.053677175194025
492,-0.0100014945492148,-0.0306767467409372,-0.0181504990905523,-0.0798965319991112,-0.0223748609423637,-0.0520081929862499
493,0.00127440271899104,-0.0231675822287798,0.00750513188540936,-0.0729903429746628,-0.00379504030570388,-0.03987105935812
494,0.00770788080990314,-0.00863237492740154,0.0332466885447502,-0.0601536370813847,0.0126042990013957,-0.0222478434443474
495,0.0141733149066567,0.00512785511091352,0.0512916147708893,-0.0486936680972576,0.024443544447422,-0.00782797951251268
496,0.021589957177639,0.0138102769851685,0.0595358870923519,-0.0437569208443165,0.0325482971966267,-0.00120199692901224
497,0.0251368153840303,0.015731705352664,0.0580719634890556,-0.0468436852097511,0.0350691005587578,-0.00156835315283388
498,0.0217107757925987,0.0134163172915578,0.048163790255785,-0.0573010593652725,0.0279882289469242,-0.00753892306238413
499,0.0124435368925333,0.00989893730729818,0.0336723700165749,-0.072024330496788,0.0120176784694195,-0.0175276231020689
500,0.00158434838522226,0.00160606543067843,0.02178068831563,-0.0856336206197739,-0.00520019652321935,-0.0266359560191631
501,-0.00884911045432091,-0.0154092293232679,0.0175366755574942,-0.0922450870275497,-0.016278924420476,-0.0305007137358189
502,-0.0188501216471195,-0.0377509668469429,0.0222773253917694,-0.0871777608990669,-0.0186236519366503,-0.0298079773783684
503,-0.0242826566100121,-0.0586781091988087,0.0352029912173748,-0.0738819167017937,-0.0142849879339337,-0.0281702689826488
504,-0.021855054423213,-0.0718478262424469,0.0509865283966064,-0.0636712610721588,-0.00646286737173796,-0.0302120912820101
505,-0.0133639583364129,-0.0717447474598885,0.0626235827803612,-0.0614347383379936,0.00394238671287894,-0.0370411947369576
506,-0.00160013372078538,-0.0588152222335339,0.0673991590738297,-0.0633052736520767,0.0138022359460592,-0.0442955568432808
507,0.0104747898876667,-0.0407682247459888,0.0671871677041054,-0.0650098323822021,0.0182972345501184,-0.0467299707233906
508,0.0170567017048597,-0.0249426942318678,0.0659191161394119,-0.0634305402636528,0.0191049482673407,-0.0410344451665878
509,0.0133669730275869,-0.0138880871236324,0.0667108595371246,-0.0566723048686981,0.0218027383089066,-0.0275301765650511
510,0.00227786949835718,-0.00738096283748746,0.0689970403909683,-0.0462268143892288,0.0249343980103731,-0.0107876118272543
511,-0.00829433836042881,-0.0045719132758677,0.0716249048709869,-0.0358698926866055,0.0234548952430487,0.00265909731388092
512,-0.0128271421417594,-0.00549257081001997,0.0745599120855331,-0.030477300286293,0.0187239702790976,0.00541384518146515
513,-0.0114053133875132,-0.0100408103317022,0.074432946741581,-0.0345044769346714,0.0145536512136459,-0.00601939111948013
514,-0.00870166718959808,-0.0169283244758844,0.0672608241438866,-0.0476590655744076,0.0109648816287518,-0.0263310484588146
515,-0.00949276145547628,-0.0251850392669439,0.0547062829136848,-0.0650198981165886,0.00690508354455233,-0.0472165942192078
516,-0.0139837516471744,-0.0333862081170082,0.0423193871974945,-0.0808116421103477,0.00350916455499828,-0.0627116337418556
517,-0.0181080903857946,-0.039191547781229,0.0350042209029198,-0.0908639803528786,0.00312213087454438,-0.0692807361483574
518,-0.0171723235398531,-0.0409913435578346,0.0340371951460838,-0.0939570441842079,0.00717511307448149,-0.0672572031617165
519,-0.0113441906869411,-0.0402230992913246,0.0355730094015598,-0.0925796926021576,0.0131843443959951,-0.0610162243247032
520,-0.00445164181292057,-0.0402138009667397,0.0359666049480438,-0.0898561403155327,0.0173928160220385,-0.0548313222825527
521,0.00187853560782969,-0.0423719510436058,0.0353479646146297,-0.0867881700396538,0.0191295724362135,-0.0507404953241348
522,0.00655450392514467,-0.0459333658218384,0.0342772342264652,-0.0835958272218704,0.0186351127922535,-0.0491219386458397
523,0.00713939871639013,-0.0490111522376537,0.0333532281219959,-0.0800120159983635,0.0164869502186775,-0.0480942390859127
524,0.00319166644476354,-0.0496378242969513,0.0337941385805607,-0.0760399773716927,0.014851875603199,-0.0460348017513752
525,-0.00258919922634959,-0.0470777712762356,0.0354078896343708,-0.0734014213085175,0.0154402069747448,-0.0443371273577213
526,-0.00744774984195828,-0.0427804924547672,0.0354828648269176,-0.0745587348937988,0.0167475305497646,-0.0455831363797188
527,-0.00979250762611628,-0.0395270362496376,0.0317947715520859,-0.0799989551305771,0.0161234736442566,-0.0502236895263195
528,-0.00752749806270003,-0.039523396641016,0.0258343610912561,-0.0872944369912148,0.0145986638963223,-0.0566376559436321
529,-0.000610319257248193,-0.0431827008724213,0.0210720617324114,-0.0927248820662498,0.0146735878661275,-0.0623775385320187
530,0.0049065095372498,-0.0494637824594975,0.0193264558911324,-0.0942510664463043,0.0149720795452595,-0.0650457218289375
531,0.00180674693547189,-0.0574343539774418,0.0195653084665537,-0.0928899347782135,0.0133978370577097,-0.0645770132541656
532,-0.00999863538891077,-0.0659687891602516,0.019993893802166,-0.0908425599336624,0.0114206923171878,-0.0632636249065399
533,-0.0240058712661266,-0.0738322138786316,0.0191432107239962,-0.0913863927125931,0.0110290059819818,-0.0646732151508331
534,-0.0327742919325829,-0.0796996727585793,0.0161682460457087,-0.0964845344424248,0.0126399369910359,-0.0703885853290558
535,-0.0335921421647072,-0.0818937420845032,0.0126169994473457,-0.103014677762985,0.0153751596808434,-0.0771069899201393
536,-0.0302546229213476,-0.0805361866950989,0.0117814457044005,-0.106235109269619,0.0175846349447966,-0.0802529230713844
537,-0.0264397002756596,-0.0769689381122589,0.0153539655730128,-0.104212932288647,0.0199299193918705,-0.0772745162248611
538,-0.0223030913621187,-0.0722784474492073,0.0217511858791113,-0.0981213971972466,0.0237844604998827,-0.0687507092952728
539,-0.0163007881492376,-0.0679157376289368,0.0282005127519369,-0.0908489897847176,0.0269048940390348,-0.0583458282053471
540,-0.00652876915410161,-0.0642856135964394,0.0334297157824039,-0.0848895907402039,0.0271804947406054,-0.0496707744896412
541,0.00461700139567256,-0.0602983981370926,0.0371061787009239,-0.0817526131868362,0.0260718185454607,-0.0441265664994717
542,0.0118782473728061,-0.0555579327046871,0.0384931042790413,-0.0826730951666832,0.0257235076278448,-0.0406920351088047
543,0.0137533815577626,-0.051560040563345,0.0370454452931881,-0.088046133518219,0.0266190301626921,-0.037858959287405
544,0.0114703709259629,-0.0494699850678444,0.0335053279995918,-0.0959523618221283,0.0272725783288479,-0.0363854803144932
545,0.00619807047769427,-0.0483548417687416,0.0302320569753647,-0.102747336030006,0.0256770011037588,-0.0377838462591171
546,-0.000271282944595441,-0.0476625971496105,0.0302078612148762,-0.105659164488316,0.0218247696757317,-0.0407055094838142
547,-0.00465946784242988,-0.047725722193718,0.0350010991096497,-0.103537663817406,0.0189631041139364,-0.04098741710186
548,-0.00474311830475926,-0.0481703951954842,0.0420811362564564,-0.097546361386776,0.0207124724984169,-0.0370902381837368
549,-0.00134500151034445,-0.048094380646944,0.0467407554388046,-0.0914623439311981,0.02619962207973,-0.0326671749353409
550,0.0040071988478303,-0.0469155386090279,0.0472791120409966,-0.0888806357979774,0.031244058161974,-0.0309903360903263
551,0.00852817762643099,-0.0451908297836781,0.0441986806690693,-0.0911982208490372,0.0339551270008087,-0.0322770290076733
552,0.00795141793787479,-0.0436134822666645,0.0382650047540665,-0.096623882651329,0.0347606875002384,-0.0358279570937157
553,0.00132179330103099,-0.0422713309526443,0.0319064110517502,-0.100877642631531,0.0323747470974922,-0.0399829708039761
554,-0.00781788118183613,-0.0413039922714233,0.0284077469259501,-0.100957430899143,0.025227677077055,-0.0421693213284016
555,-0.0154485264793038,-0.0404821783304214,0.0297654625028372,-0.0968745201826096,0.0161787029355764,-0.0406048707664013
556,-0.0204550623893738,-0.039427887648344,0.0351127497851849,-0.0914231464266777,0.00925920251756907,-0.0365769639611244
557,-0.0245391726493835,-0.0377444699406624,0.0406547449529171,-0.0886632800102234,0.0046295914798975,-0.0336572304368019
558,-0.0283598806709051,-0.0343703664839268,0.0430568382143974,-0.089507520198822,0.00218779942952096,-0.0333441086113453
559,-0.0298279523849487,-0.0293097104877234,0.0419917553663254,-0.0916418880224228,0.0032100067473948,-0.0346660353243351
560,-0.0278158131986856,-0.0241909883916378,0.0386308394372463,-0.0938617736101151,0.00616633100435138,-0.0368945971131325
561,-0.0236894655972719,-0.0199703779071569,0.0339948311448097,-0.0960496664047241,0.0077954763546586,-0.0393075011670589
562,-0.0185374636203051,-0.0172839853912592,0.0292274057865143,-0.0974961593747139,0.00752355391159654,-0.0403632000088692
563,-0.0126218991354108,-0.017589857801795,0.0256190504878759,-0.097592793405056,0.00679665897041559,-0.0384458117187023
564,-0.00800107792019844,-0.0211503636091948,0.0238632801920176,-0.0965297594666481,0.00643520662561059,-0.0335234589874744
565,-0.00615042727440596,-0.0258189719170332,0.0230662673711777,-0.095551997423172,0.0057414947077632,-0.0290852058678865
566,-0.005001001060009,-0.0286675021052361,0.0216171313077211,-0.0962977632880211,0.00352520123124123,-0.0302539840340614
567,-0.00479208584874868,-0.0277277231216431,0.0196393579244614,-0.0983462557196617,4.45117730123457E-05,-0.0369930453598499
568,-0.00980990100651979,-0.0244894064962864,0.0176122821867466,-0.0998831540346146,-0.00329739297740161,-0.0447181239724159
569,-0.0203088987618685,-0.0233283992856741,0.0150087475776672,-0.100923359394073,-0.00585235469043255,-0.0515561290085316
570,-0.0300749056041241,-0.025995060801506,0.0124139236286283,-0.102208822965622,-0.00798155646771193,-0.0573784150183201
571,-0.0338463336229324,-0.03011080250144,0.0110823232680559,-0.102797135710716,-0.00968864373862743,-0.0606611520051956
572,-0.0325496979057789,-0.0323065631091595,0.0118621867150068,-0.100586868822575,-0.0103084444999695,-0.0596727803349495
573,-0.0321890190243721,-0.0308693144470453,0.0146351978182793,-0.0955283865332603,-0.0104460520669818,-0.0548741072416306
574,-0.0379862114787102,-0.0274887662380934,0.0169780701398849,-0.0910841450095177,-0.0120928753167391,-0.05020846799016
575,-0.0487184152007103,-0.0268198363482952,0.0156271308660507,-0.0908017680048943,-0.0160420332103968,-0.0503572486341
576,-0.0582427196204662,-0.0317529961466789,0.0101827504113317,-0.094453863799572,-0.020375557243824,-0.0564195699989796
577,-0.061096228659153,-0.0394267998635769,0.0038763708434999,-0.0981819853186607,-0.0218176413327456,-0.0648776888847351
578,-0.0562306977808475,-0.0444945245981216,0.000124036188935861,-0.0983804017305374,-0.0188057981431484,-0.0706109404563904
579,-0.0475424490869045,-0.0450393930077553,-8.0294248618884E-06,-0.0945580154657364,-0.0126722007989883,-0.071236290037632
580,-0.0412801168859005,-0.0428263768553734,0.00264487927779555,-0.0883881524205208,-0.00690213032066822,-0.0680265128612518
581,-0.0404601208865643,-0.0391932241618633,0.00724129006266594,-0.0812623798847198,-0.00436938088387251,-0.0628339126706123
582,-0.043165497481823,-0.0345871075987816,0.0125132678076625,-0.0746511667966843,-0.00602125702425838,-0.0575587265193462
583,-0.0460154414176941,-0.0298648085445166,0.0152657805010676,-0.070692777633667,-0.011872598901391,-0.0539988651871681
584,-0.0459572896361351,-0.0251632407307625,0.0138752711936831,-0.0695975124835968,-0.0189296957105398,-0.0514716356992722
585,-0.0416073128581047,-0.0206603761762381,0.0103900693356991,-0.0694146677851677,-0.0224743485450745,-0.0484310835599899
586,-0.0346923097968102,-0.0172930471599102,0.00692454865202308,-0.0684251189231873,-0.0220619030296803,-0.044371709227562
587,-0.0282346215099096,-0.0149830933660269,0.00450907042250037,-0.0657194256782532,-0.0202203132212162,-0.0389511622488499
588,-0.0244639124721289,-0.0133366556838155,0.00397473061457276,-0.0616616047918797,-0.0180193036794662,-0.0333967208862305
589,-0.023892829194665,-0.0124176191166043,0.00529972743242979,-0.0576301589608192,-0.0158282816410065,-0.0303178783506155
590,-0.0242685899138451,-0.0102724181488156,0.00841859821230173,-0.0537420734763145,-0.0135592622682452,-0.0296599138528109
591,-0.0237401910126209,-0.00567827560007572,0.0122665176168084,-0.0504766441881657,-0.0115202786400914,-0.0301931034773588
592,-0.0234048254787922,-0.00178021041210741,0.0135980769991875,-0.0500738471746445,-0.0120654664933681,-0.0328888855874538
593,-0.0239340122789145,-0.000772166415117681,0.0107869124040008,-0.052835937589407,-0.0164215620607138,-0.0380036011338234
594,-0.0246531516313553,-0.00159122166223824,0.00535814370959997,-0.0569590367376804,-0.0216182041913271,-0.0441620871424675
595,-0.0251397229731083,-0.00326045043766499,-0.00011799497588072,-0.060499519109726,-0.0238274503499269,-0.0494766533374786
596,-0.0244850367307663,-0.00537167536094785,-0.00357600674033165,-0.0619191080331802,-0.0224729683250189,-0.051805205643177
597,-0.0200319886207581,-0.00834811292588711,-0.00490767788141966,-0.0618968494236469,-0.0184357557445765,-0.0520865842700005
598,-0.00924950465559959,-0.0119626084342599,-0.00452898582443595,-0.0618619248270988,-0.0115902116522193,-0.0535506382584572
599,0.00253925821743906,-0.0141295092180371,-0.0026574160438031,-0.0621927678585052,-0.00427955901250243,-0.0573437325656414
600,0.00437718210741878,-0.0124914115294814,-0.000134644011268392,-0.0626464858651161,-0.001492670038715,-0.0612789765000343
601,-0.00571968499571085,-0.00667883548885584,0.00242160307243466,-0.0625029355287552,-0.00514411460608244,-0.0619183667004108
602,-0.0201593395322561,-0.000880681269336492,0.00363045558333397,-0.0627050250768662,-0.0144147304818034,-0.0592131204903126
603,-0.0322440639138222,0.000995072652585804,0.00306111387908459,-0.0640706270933151,-0.0270357560366392,-0.0554874688386917
604,-0.0402380153536797,0.000106562583823688,0.00317074148915708,-0.0646672770380974,-0.0383110456168652,-0.0517114847898483
605,-0.0456831678748131,-0.000946535845287144,0.00581240002065897,-0.0625665485858917,-0.0447824113070965,-0.0476513989269733
606,-0.0491339601576328,-0.000535645347554237,0.0111165260896087,-0.0573948957026005,-0.0462649464607239,-0.0429341606795788
607,-0.0494911856949329,0.000865736743435264,0.0178611818701029,-0.0506400614976883,-0.0448818765580654,-0.0389478020370007
608,-0.0471754260361195,0.000940370839089155,0.0230233985930681,-0.0453616082668304,-0.04458874091506,-0.0382552184164524
609,-0.0431345887482166,-0.000609709415584803,0.024384006857872,-0.0434823967516422,-0.0465792901813984,-0.041424348950386
610,-0.0384228117763996,-0.00241126422770321,0.0213733147829771,-0.0451059229671955,-0.0484735406935215,-0.0469145327806473
611,-0.0360815487802029,-0.00505228294059634,0.0133185340091586,-0.0501417517662048,-0.050715696066618,-0.0530005693435669
612,-0.0374396629631519,-0.00935411546379328,0.00175673572812229,-0.0576421469449997,-0.0546492747962475,-0.0581588484346867
613,-0.0405476875603199,-0.0137740587815642,-0.00874342303723097,-0.0651907250285149,-0.0581275187432766,-0.0611789003014565
614,-0.0444326885044575,-0.0162915159016848,-0.0155642814934254,-0.070418618619442,-0.0593693666160107,-0.0616597235202789
615,-0.0482350550591946,-0.0153592182323337,-0.0183168463408947,-0.0714434459805489,-0.0575173497200012,-0.0594526715576649
616,-0.0493046194314957,-0.0114383809268475,-0.0171509198844433,-0.0685013458132744,-0.0517335198819637,-0.0556377582252026
617,-0.0446328595280647,-0.00770406611263752,-0.0142524540424347,-0.0646353214979172,-0.0432703495025635,-0.0529454089701176
618,-0.0331622548401356,-0.00525488145649433,-0.0116409072652459,-0.0614599138498306,-0.034348264336586,-0.0519411414861679
619,-0.0200451537966728,-0.00207861163653433,-0.00950527749955654,-0.058059498667717,-0.0280026644468308,-0.0502634346485138
620,-0.0140006113797426,0.00277900765649974,-0.00783718936145306,-0.0541314668953419,-0.0270381085574627,-0.0466650500893593
621,-0.0171417836099863,0.00887341238558292,-0.00538167031481862,-0.0495678596198559,-0.0290918238461018,-0.0418101772665977
622,-0.024960957467556,0.0142544033005834,-4.50596826340188E-06,-0.0442791096866131,-0.0299926046282053,-0.0374526120722294
623,-0.0346711687743664,0.0149824060499668,0.00835443194955587,-0.0399179942905903,-0.0300142504274845,-0.0360908806324005
624,-0.0440263636410236,0.0100333234295249,0.0180865284055471,-0.0376812890172005,-0.0298527218401432,-0.038545373827219
625,-0.0488529726862907,0.00367918121628463,0.0270439479500055,-0.0365471877157688,-0.0287007857114077,-0.0424506813287735
626,-0.0491280518472195,7.1393464168068E-05,0.0311372261494398,-0.0365249663591385,-0.0300484634935856,-0.0449296273291111
627,-0.0489942766726017,-0.000307602196699008,0.0264237355440855,-0.0398214869201183,-0.0390734747052193,-0.0463427789509296
628,-0.0507585220038891,0.000826779287308455,0.0136973736807704,-0.0473132953047752,-0.0551355555653572,-0.0489633195102215
629,-0.0543939359486103,0.00159096671268344,-0.00273281894624233,-0.0567688457667828,-0.0730427280068398,-0.0523772090673447
630,-0.0573836378753185,0.00227801175788045,-0.0186782460659742,-0.0638345032930374,-0.087380051612854,-0.0525769628584385
631,-0.0555025711655617,0.00347568676806986,-0.0318311341106892,-0.0658316686749458,-0.0959916785359383,-0.0478008575737476
632,-0.0493534095585346,0.00417792657390237,-0.0406487807631493,-0.0637679770588875,-0.0997009351849556,-0.0409976877272129
633,-0.0458775982260704,0.00375021132640541,-0.0438494384288788,-0.0603775344789028,-0.0994511172175407,-0.0356642492115498
634,-0.0482394769787788,0.00264572282321751,-0.0420491136610508,-0.0581508502364159,-0.0958543717861176,-0.0334907658398151
635,-0.0524079389870167,0.000956903037149459,-0.0376803316175938,-0.0585433021187782,-0.0900591164827347,-0.0347544550895691
636,-0.0550403743982315,-0.00231022667139769,-0.0334001556038857,-0.0617047213017941,-0.0842559412121773,-0.0390686132013798
637,-0.0561643987894058,-0.00730662839487195,-0.0304722655564547,-0.06576818972826,-0.0796035379171371,-0.0450099483132362
638,-0.0573399104177952,-0.0129113048315048,-0.0285126697272062,-0.0681838616728783,-0.0756281167268753,-0.0499310679733753
639,-0.0594134218990803,-0.0175071079283953,-0.0264311898499727,-0.0673040524125099,-0.072004459798336,-0.0510109327733517
640,-0.061819463968277,-0.0204241424798965,-0.0246105957776308,-0.0633715465664864,-0.069532036781311,-0.0482660755515099
641,-0.0643260180950165,-0.0228447653353214,-0.025222010910511,-0.0588376559317112,-0.070185974240303,-0.0451116971671581
642,-0.0663302764296532,-0.0255794357508421,-0.0286958236247301,-0.0559852942824364,-0.0742075145244598,-0.043998796492815
643,-0.0661074966192245,-0.0276370942592621,-0.0325560979545116,-0.0552785955369473,-0.0785836055874825,-0.0444018915295601
644,-0.0631421953439713,-0.0278251469135284,-0.0345581844449043,-0.0557713210582733,-0.080545149743557,-0.0449983961880207
645,-0.0585529766976833,-0.0255157705396414,-0.0336584746837616,-0.0551985912024975,-0.0793029218912125,-0.0444512516260147
646,-0.0536617822945118,-0.020495081320405,-0.0296292081475258,-0.0515840612351894,-0.075197659432888,-0.0412065647542477
647,-0.0498526617884636,-0.0141055025160313,-0.0239529218524694,-0.0454711392521858,-0.0694175139069557,-0.0355704203248024
648,-0.046847015619278,-0.00831502955406904,-0.0184591170400381,-0.0388184934854507,-0.0627303496003151,-0.0299682170152664
649,-0.0424139499664307,-0.00373936048708856,-0.0140045350417495,-0.0330044403672218,-0.0546257644891739,-0.025864627212286
650,-0.0364109389483929,-0.000342562037985772,-0.0117165828123689,-0.0286700595170259,-0.046146348118782,-0.0233066398650408
651,-0.0307585801929235,0.00264882994815707,-0.0124823749065399,-0.0253482162952423,-0.0415930151939392,-0.0220706295222044
652,-0.0266092158854008,0.00643598427996039,-0.0158779695630074,-0.0223069768399,-0.0439205281436443,-0.0218002069741488
653,-0.0252466984093189,0.0101506439968944,-0.0208405777812004,-0.0204792413860559,-0.0505325831472874,-0.0223997049033642
654,-0.0285115037113428,0.0114112328737974,-0.026252668350935,-0.021292794495821,-0.0569617003202438,-0.0241947639733553
655,-0.0364009141921997,0.00893275253474712,-0.0316117368638515,-0.0246757492423058,-0.0618308633565903,-0.0274164117872715
656,-0.0453099049627781,0.00400879792869091,-0.0364702008664608,-0.028649628162384,-0.065273329615593,-0.0307797994464636
657,-0.0509624257683754,-0.00113625358790159,-0.0395392738282681,-0.0310189072042704,-0.0669990405440331,-0.0330361016094685
658,-0.0520888641476631,-0.00572039280086756,-0.0395685955882072,-0.0311815589666367,-0.0669606924057007,-0.0351269468665123
659,-0.0495630167424679,-0.00922163296490908,-0.0367737710475922,-0.0295665096491575,-0.0651516616344452,-0.0379248298704624
660,-0.0455821976065636,-0.0114051084965467,-0.0336750894784927,-0.0277901608496904,-0.0619588121771812,-0.0414794310927391
661,-0.0433569960296154,-0.0134940547868609,-0.033470656722784,-0.0286681484431028,-0.0588498376309872,-0.0464855805039406
662,-0.04532765224576,-0.0168394651263952,-0.0374558307230473,-0.0337969549000263,-0.0586710199713707,-0.0532311573624611
663,-0.0518856421113014,-0.0214465465396643,-0.044557623565197,-0.0417742654681206,-0.0639900490641594,-0.0601716302335262
664,-0.061013150960207,-0.0261073559522629,-0.0522844977676868,-0.0496914759278297,-0.0735587924718857,-0.065183199942112
665,-0.0695742070674896,-0.0300584379583597,-0.0589514262974262,-0.0558751150965691,-0.0829493924975395,-0.0677846670150757
666,-0.0742754191160202,-0.0336745195090771,-0.0643553584814072,-0.0599500797688961,-0.0887045711278915,-0.0688694417476654
667,-0.0726768299937248,-0.037662860006094,-0.0688842535018921,-0.0624988004565239,-0.0907475054264069,-0.0698835551738739
668,-0.0664117261767387,-0.0420423112809658,-0.0733960792422295,-0.0649055540561676,-0.0909218862652779,-0.0724459961056709
669,-0.0592903308570385,-0.045746423304081,-0.0783044993877411,-0.0678497478365898,-0.0898220911622047,-0.0771069452166557
670,-0.053339134901762,-0.0477251186966896,-0.0831035897135735,-0.0710491538047791,-0.0866004303097725,-0.083078607916832
671,-0.0514654964208603,-0.0479450300335884,-0.0866751372814178,-0.0734352394938469,-0.0810694098472595,-0.0880584344267845
672,-0.0563984774053097,-0.0471730642020702,-0.0878006741404533,-0.0742440298199654,-0.0742640122771263,-0.0898166596889496
673,-0.0667675584554672,-0.0458888784050941,-0.0867690071463585,-0.0743459016084671,-0.0678485780954361,-0.0888308957219124
674,-0.0788719207048416,-0.0437168143689632,-0.085303045809269,-0.0741321295499802,-0.0630014464259148,-0.0864695236086845
675,-0.0880355089902878,-0.0408620610833168,-0.0837884619832039,-0.07282704859972,-0.0594871006906033,-0.0838757529854774
676,-0.0907090529799461,-0.0380255058407784,-0.0808591023087502,-0.0708767026662827,-0.057152796536684,-0.0826083496212959
677,-0.0878728181123734,-0.0339423194527626,-0.0764461383223534,-0.0688658878207207,-0.0574152730405331,-0.0810913220047951
678,-0.0832095891237259,-0.0280666835606098,-0.0733111724257469,-0.0671184286475182,-0.061589565128088,-0.0769794657826424
679,-0.0798617824912071,-0.0234994143247604,-0.0736973062157631,-0.0672229155898094,-0.0683911889791489,-0.0724242329597473
680,-0.0784892141819,-0.0215331055223942,-0.0760251805186272,-0.068740151822567,-0.074395664036274,-0.0676773339509964
681,-0.0774242654442787,-0.0199915878474712,-0.0779798328876495,-0.0687709450721741,-0.0774346068501472,-0.0604209862649441
682,-0.0744165703654289,-0.0176805444061756,-0.0788419023156166,-0.0662123784422874,-0.0771554708480835,-0.0535725206136703
683,-0.0676588267087936,-0.014922084286809,-0.0785036161541939,-0.0625906959176064,-0.0736506879329681,-0.0517198219895363
684,-0.0593688525259495,-0.0128283109515905,-0.0782335624098778,-0.0603955201804638,-0.0688631162047386,-0.0554854311048985
685,-0.0537097826600075,-0.0114678628742695,-0.0788030549883842,-0.0599979758262634,-0.0651111230254173,-0.0621757283806801
686,-0.0512227825820446,-0.00946867931634188,-0.0793164297938347,-0.0594698116183281,-0.0628047361969948,-0.0680690631270409
687,-0.0511487200856209,-0.00707615818828344,-0.0798061937093735,-0.0582684837281704,-0.0614611804485321,-0.0717963352799416
688,-0.0532056018710136,-0.00572545733302832,-0.0809224843978882,-0.0571482852101326,-0.0601428858935833,-0.0738970637321472
689,-0.0549482740461826,-0.00540999602526426,-0.0821130648255348,-0.0556118600070477,-0.0572823658585548,-0.0742450878024101
690,-0.0521333813667297,-0.00495721958577633,-0.0825027450919151,-0.053004402667284,-0.052029125392437,-0.0726180672645569
691,-0.0436173491179943,-0.00516621116548777,-0.0835364758968353,-0.0517182052135468,-0.0473479554057121,-0.0709418505430222
692,-0.032308965921402,-0.00739593710750341,-0.0872898325324059,-0.0551462881267071,-0.0470560118556023,-0.0723692029714584
693,-0.0221163909882307,-0.0093793710693717,-0.0916050896048546,-0.0616941004991531,-0.0483951456844807,-0.0761389210820198
694,-0.018160792067647,-0.00949491281062365,-0.0930498167872429,-0.0664801150560379,-0.0474589429795742,-0.0777219459414482
695,-0.0239391345530748,-0.00914357975125313,-0.0909081771969795,-0.0661418959498405,-0.0465384796261787,-0.0732775554060936
696,-0.0359905436635017,-0.00856965500861406,-0.0850295796990395,-0.0594094768166542,-0.0470366477966309,-0.0623814910650253
697,-0.0471870042383671,-0.00755495112389326,-0.0765834450721741,-0.0487084463238716,-0.0463413335382938,-0.0486375838518143
698,-0.0536052323877811,-0.00662849377840757,-0.0686325207352638,-0.0388248264789581,-0.0433328039944172,-0.0354467369616032
699,-0.0554499141871929,-0.00571919232606888,-0.0635325014591217,-0.0322461165487766,-0.040399856865406,-0.0242549534887075
700,-0.0550561398267746,-0.00470809917896986,-0.0623925216495991,-0.0288283638656139,-0.0409903824329376,-0.0169609561562538
701,-0.0543218180537224,-0.00413757143542171,-0.064989760518074,-0.0281003303825855,-0.0452290810644627,-0.0150174545124173
702,-0.0523594282567501,-0.00374976522289217,-0.0689703896641731,-0.0292762853205204,-0.0485387109220028,-0.0176077652722597
703,-0.0470843873918056,-0.00302010565064847,-0.0721563845872879,-0.0312116537243128,-0.0470934845507145,-0.0229853540658951
704,-0.0378089733421803,-0.0032102691475302,-0.0750667974352837,-0.0335541963577271,-0.0423584245145321,-0.0301641374826431
705,-0.026430232450366,-0.00544074503704906,-0.0783924087882042,-0.0359842032194138,-0.0370054133236408,-0.0371446684002876
706,-0.0175285078585148,-0.0097159631550312,-0.0813088938593864,-0.0379659980535507,-0.032696608453989,-0.040152944624424
707,-0.0154126286506653,-0.0164966508746147,-0.0833822414278984,-0.0400900021195412,-0.0315453335642815,-0.0377768240869045
708,-0.0204739216715097,-0.0249028187245131,-0.0849285125732422,-0.0429364629089832,-0.0329530239105225,-0.0334485284984112
709,-0.0294918566942215,-0.0318853482604027,-0.0858934670686722,-0.0455494150519371,-0.0333749242126942,-0.0317664630711079
710,-0.0396619252860546,-0.0362622477114201,-0.0861380770802498,-0.0473434329032898,-0.0322357937693596,-0.0345634929835796
711,-0.049037653952837,-0.0391737148165703,-0.0858478173613548,-0.0487367399036884,-0.0315761379897594,-0.040540412068367
712,-0.0548737607896328,-0.0409662239253521,-0.0858269110321999,-0.0497309230268002,-0.0309039149433374,-0.0468496270477772
713,-0.0557003691792488,-0.0414718203246593,-0.087399460375309,-0.0505229085683823,-0.0292775686830282,-0.0513318143785
714,-0.0522883832454681,-0.0414331071078777,-0.0907993614673615,-0.0520652197301388,-0.0278376191854477,-0.0535261519253254
715,-0.0465533770620823,-0.0422153957188129,-0.0949124172329903,-0.0549591146409512,-0.0272144712507725,-0.0540340542793274
716,-0.0400643013417721,-0.0439126864075661,-0.0982284247875214,-0.0583156086504459,-0.0275017954409122,-0.0529165416955948
717,-0.0338746644556522,-0.0453663691878319,-0.100037507712841,-0.0607886910438538,-0.0298128426074982,-0.0498505383729935
718,-0.0294143781065941,-0.046191468834877,-0.100240364670753,-0.0618751831352711,-0.0335395820438862,-0.0451702140271664
719,-0.0269297529011965,-0.0462991185486317,-0.0981036722660065,-0.0611787997186184,-0.03558599203825,-0.0391848981380463
720,-0.0249993745237589,-0.0448799878358841,-0.0933359265327454,-0.0584877617657185,-0.0343714766204357,-0.0322012864053249
721,-0.0232035741209984,-0.0415022745728493,-0.0873267501592636,-0.0551522448658943,-0.0313476547598839,-0.0262160841375589
722,-0.0225254260003567,-0.0370212011039257,-0.0820727646350861,-0.053499236702919,-0.0287421923130751,-0.0247164145112038
723,-0.0224382933229208,-0.0324310399591923,-0.077680416405201,-0.0539672113955021,-0.0263374652713537,-0.028366181999445
724,-0.0215136036276817,-0.0282459445297718,-0.0727433189749718,-0.0546319782733917,-0.0226399637758732,-0.0332300215959549
725,-0.0195239465683699,-0.024992898106575,-0.0673310235142708,-0.0541476607322693,-0.0177782457321882,-0.0351700969040394
726,-0.0165961161255836,-0.0231698025017977,-0.0630587190389633,-0.0529383532702923,-0.0130751999095082,-0.0335772223770618
727,-0.0130325062200427,-0.0231103040277958,-0.0608848966658115,-0.0517808198928833,-0.00931718945503235,-0.0304476823657751
728,-0.0100026251748204,-0.0245127100497484,-0.060801774263382,-0.0512888990342617,-0.00632456643506885,-0.0281989332288504
729,-0.00865112338215113,-0.0258449856191874,-0.0619732439517975,-0.0514572001993656,-0.00415185606107116,-0.0284899957478046
730,-0.00850885920226574,-0.0247307848185301,-0.0622668266296387,-0.0511297173798084,-0.00242439424619079,-0.0310552418231964
731,-0.00879056751728058,-0.0205273386090994,-0.0610808804631233,-0.0499084293842316,-0.00113202654756606,-0.033827893435955
732,-0.00996416434645653,-0.015467818826437,-0.0604940392076969,-0.0485418476164341,-0.00142785476054996,-0.0344815589487553
733,-0.0122428582981229,-0.0116275511682034,-0.0612042434513569,-0.0467472858726978,-0.00300947483628988,-0.0314252339303494
734,-0.0157281365245581,-0.00978105887770653,-0.0622506476938725,-0.0443239696323872,-0.00544752180576324,-0.0256276018917561
735,-0.0204215869307518,-0.0100167645141482,-0.0635541826486588,-0.0424146987497807,-0.00996900629252195,-0.0202729776501656
736,-0.0238901358097792,-0.0111338226124644,-0.0645740553736687,-0.0414066798985004,-0.0160660482943058,-0.0168188717216253
737,-0.0232080165296793,-0.011345854960382,-0.0646528750658035,-0.0406615994870663,-0.020934272557497,-0.0140386894345284
738,-0.0177471674978733,-0.00970654841512442,-0.0650149434804916,-0.0396136455237865,-0.0230083148926497,-0.00975469220429659
739,-0.00849130284041166,-0.00666693178936839,-0.0658468529582024,-0.0371812134981155,-0.0224457569420338,-0.0035723855253309
740,0.0024528584908694,-0.0034992303699255,-0.0650556236505508,-0.032734040170908,-0.0196017883718014,0.00183321954682469
741,0.0107039390131831,-0.00158704700879753,-0.0617189481854439,-0.0277784094214439,-0.0154154803603888,0.00378376943990588
742,0.0113607374951243,-0.00128182000480592,-0.0563427582383156,-0.0235856510698795,-0.0112687898799777,0.0025981676299125
743,0.00585565390065312,-0.000628828187473118,-0.0484073124825954,-0.0184697788208723,-0.00723154051229358,0.00201635248959064
744,0.00101777829695493,0.00243307300843298,-0.0373787432909012,-0.0105256605893373,-0.00303492415696383,0.00531532429158688
745,0.000588190916460007,0.00742918672040105,-0.024797797203064,-0.00126332859508693,0.000301355350529775,0.0109278196468949
746,0.0029376579914242,0.0123311299830675,-0.0137107195332646,0.0057699210010469,0.00129917799495161,0.0144111253321171
747,0.00498527241870761,0.0152121409773827,-0.00732506718486547,0.00818115286529064,-0.00122133200056851,0.0132675375789404
748,0.00513452338054776,0.0154487583786249,-0.00709990877658129,0.00595519412308931,-0.00740054529160261,0.00840026512742043
749,0.00340376538224518,0.014289771206677,-0.0114799039438367,0.00110315531492233,-0.0153126893565059,0.00210583372972906
750,0.00125802063848823,0.0138436695560813,-0.0167644266039133,-0.00323128909803927,-0.0210537798702717,-0.00310006970539689
751,6.87369538354687E-05,0.014915132895112,-0.0193392802029848,-0.0048025487922132,-0.0212656352669001,-0.00527193583548069
752,0.000638862897176296,0.0168247614055872,-0.0183537807315588,-0.00402399385347962,-0.0167564824223518,-0.00406253430992365
753,0.00458384538069367,0.0191358756273985,-0.0169219356030226,-0.00305917044170201,-0.0118488734588027,-0.00060218560975045
754,0.0128270871937275,0.0220150798559189,-0.017847578972578,-0.00290134362876415,-0.00740339839830995,0.0030354002956301
755,0.0230268966406584,0.0247514620423317,-0.0201160032302141,-0.00306609668768942,-0.00133934954646975,0.00464147981256247
756,0.0309388879686594,0.0254659820348024,-0.0220909807831049,-0.00332753988914192,0.00370841100811958,0.00368557753972709
757,0.0329018197953701,0.0236356742680073,-0.0235054641962051,-0.00293053360655904,0.00275558652356267,0.00230597658082843
758,0.0273831319063902,0.0205581933259964,-0.0245257373899221,-0.00112743035424501,-0.00486668944358826,0.00262086070142686
759,0.0170034449547529,0.0178410410881042,-0.0247405581176281,0.00167766422964633,-0.0154192112386227,0.00528766307979822
760,0.00595844350755215,0.0162570178508759,-0.0240457337349653,0.00433951942250133,-0.0260052401572466,0.00965302716940641
761,-0.00402044784277678,0.0161870494484901,-0.0235727950930595,0.00614534830674529,-0.0360292568802834,0.0146709196269512
762,-0.011555764824152,0.0185506213456392,-0.0234401449561119,0.00796618591994047,-0.0437211208045483,0.0206199996173382
763,-0.0133515521883965,0.0226868931204081,-0.0218964386731386,0.0104007562622428,-0.0462672971189022,0.0261420998722315
764,-0.00763834500685334,0.0262077376246452,-0.0173245817422867,0.0130184311419725,-0.0420189090073109,0.0276092123240232
765,0.00191190710756928,0.0275527611374855,-0.0105566754937172,0.015272886492312,-0.0325222052633762,0.0237375777214766
766,0.00974201317876577,0.0262530781328678,-0.00537164648994803,0.0157956480979919,-0.0230917669832706,0.0163000635802746
767,0.0127506637945771,0.0227471031248569,-0.00505009992048144,0.0137187205255032,-0.0180731266736984,0.0086364820599556
768,0.0107414983212948,0.0183141157031059,-0.00860114395618439,0.0108461044728756,-0.0162952728569508,0.0050497492775321
769,0.0065839346498251,0.014481077902019,-0.0123101938515902,0.00953847914934158,-0.0144614716991782,0.00733224675059319
770,0.00186344783287495,0.0122320652008057,-0.0135267423465848,0.0099170608446002,-0.0127665381878614,0.0125844264402986
771,-0.0039404695853591,0.0110961720347404,-0.0115307979285717,0.0111149093136191,-0.0133961671963334,0.0172476917505264
772,-0.00985266827046871,0.00954975746572018,-0.00753338355571032,0.0121399350464344,-0.0160939376801252,0.0191679913550615
773,-0.0143646374344826,0.00685082888230681,-0.00345460162498057,0.0118882851675153,-0.0181998480111361,0.0167416986078024
774,-0.015997190028429,0.00345931900665164,-0.000604298198595643,0.0102361906319857,-0.0189387295395136,0.0108904764056206
775,-0.0144855119287968,-0.00062847911613062,0.000100884710263927,0.00771978590637445,-0.0205125231295824,0.00594516796991229
776,-0.012871322222054,-0.00538790179416537,-0.000979770789854229,0.00475165713578463,-0.0237646996974945,0.00623767962679267
777,-0.0135026359930635,-0.00949382688850164,-0.00191080092918128,0.00182885769754648,-0.0265220571309328,0.0109808500856161
778,-0.0147770782932639,-0.0118657816201448,-0.000845451955683529,0.000149616796988994,-0.0255992095917463,0.01485884655267
779,-0.0148062137886882,-0.0130574963986874,0.00191212433855981,0.000595499819610268,-0.0206208638846874,0.0144098363816738
780,-0.0142363216727972,-0.0142784034833312,0.00441303942352533,0.00230783619917929,-0.0157552044838667,0.0108484616503119
781,-0.0144750559702516,-0.0161728225648403,0.00534227769821882,0.003188690636307,-0.0150772547349334,0.00679010711610317
782,-0.0154278483241796,-0.0182367898523808,0.00525909755378962,0.00179223751183599,-0.0181278921663761,0.00369249819777906
783,-0.0162418857216835,-0.0188453514128923,0.00595002248883247,-0.000821597583126277,-0.021718941628933,0.00260392250493169
784,-0.0154628371819854,-0.0176827032119036,0.00788874737918377,-0.00230832351371646,-0.0239782854914665,0.00262656342238188
785,-0.0104715349152684,-0.016356997191906,0.00984735507518053,-0.00187081389594823,-0.0236657988280058,0.00147179304622114
786,-0.00108324503526092,-0.015969542786479,0.0108293360099196,-0.00107109814416617,-0.0194249600172043,-0.000752292573451996
787,0.00827357824891806,-0.0167233776301146,0.0102720679715276,-0.00243226019665599,-0.0133964512497187,-0.00319186737760901
788,0.0125924786552787,-0.0172997582703829,0.00843973830342293,-0.0061060693114996,-0.0106152771040797,-0.00559524586424232
789,0.0102053759619594,-0.0153342168778181,0.00724349310621619,-0.00920245423913002,-0.012898444198072,-0.00656818924471736
790,0.00311076082289219,-0.0105146523565054,0.0085246954113245,-0.00921602733433247,-0.0168753918260336,-0.00454147951677442
791,-0.00492761377245188,-0.00448384555056691,0.0124211218208075,-0.00565740279853344,-0.0188960395753384,0.00159492122475058
792,-0.0108532272279263,0.000990758300758898,0.0178881604224443,0.00027004603180103,-0.0188775956630707,0.0113175250589848
793,-0.0130249904468656,0.00385282374918461,0.0230337213724852,0.00626760348677635,-0.0183581784367561,0.0198514834046364
794,-0.0111126070842147,0.00324262189678848,0.0259545408189297,0.0110413506627083,-0.0172832701355219,0.0225314814597368
795,-0.00670830858871341,0.00017248340009246,0.0261107292026281,0.0141206588596106,-0.0147520136088133,0.0195206217467785
796,-0.00413081189617515,-0.00539851887151599,0.0235762540251017,0.0138989062979817,-0.011570599861443,0.0124436402693391
797,-0.00573948537930846,-0.0121907964348793,0.019858805462718,0.0109047163277864,-0.0084763802587986,0.00462041236460209
798,-0.0075668734498322,-0.0156078543514013,0.0179569479078054,0.00908889435231686,-0.00471590785309672,0.00168130162637681
799,-0.00505654327571392,-0.0137447351589799,0.0186790246516466,0.0105655146762729,-0.000522907066624612,0.00535787036642432
800,0.00107750203460455,-0.00932061299681664,0.0207391511648893,0.0142129603773355,0.0033908027689904,0.0122678149491549
801,0.00635336199775338,-0.00353146926499903,0.0245620161294937,0.018994664773345,0.00781018938869238,0.0194953195750713
802,0.00713087897747755,0.00473668053746223,0.0312142036855221,0.0245384778827429,0.0127207571640611,0.0271491799503565
803,0.00343862362205982,0.0130182458087802,0.0385855361819267,0.029477920383215,0.0155631769448519,0.0355800725519657
804,-0.00190765783190727,0.0177301336079836,0.0433707349002361,0.0323962867259979,0.0140218660235405,0.0431987009942532
805,-0.00718946056440473,0.0190364941954613,0.0432909391820431,0.0324826501309872,0.00663197739049792,0.047257374972105
806,-0.0119939083233476,0.0191291011869907,0.038074966520071,0.02974558994174,-0.0059369970113039,0.0463789589703083
807,-0.015505756251514,0.0196134056895971,0.0302228815853596,0.0252155773341656,-0.0192210972309113,0.0414066426455975
808,-0.0182290896773338,0.0199504252523184,0.0224765203893185,0.0197061989456415,-0.029406912624836,0.0338540971279144
809,-0.0215030368417501,0.0185218844562769,0.0170867387205362,0.014403504319489,-0.0353117100894451,0.0255281236022711
810,-0.0249009672552347,0.014822487719357,0.0151146361604333,0.0109197720885277,-0.0369774736464024,0.0185406319797039
811,-0.0258828084915876,0.00937633216381073,0.0149066848680377,0.0091126412153244,-0.0355534330010414,0.0140265822410584
812,-0.0214459244161844,0.00219588913023472,0.0133620826527476,0.00588712003082037,-0.03308429941535,0.0102419154718518
813,-0.0111500080674887,-0.00544284749776125,0.00975018087774515,-0.00102545076515526,-0.0301357321441174,0.00511373160406947
814,0.000483959709526971,-0.00983505509793758,0.00691104307770729,-0.00912077352404594,-0.024826193228364,-2.55465329246363E-05
815,0.00740857142955065,-0.00991752278059721,0.00595754943788052,-0.0148024689406157,-0.0176187604665756,-0.0035729706287384
816,0.00840467121452093,-0.00887835212051868,0.00366210797801614,-0.0177094154059887,-0.0124066211283207,-0.00651940843090415
817,0.00797921419143677,-0.0101849418133497,-0.00382327637635171,-0.0200578738003969,-0.0124179041013122,-0.0106197940185666
818,0.0092520834878087,-0.0145023921504617,-0.0155069371685386,-0.0228862427175045,-0.0170649383217096,-0.0160007905215025
819,0.0107371089980006,-0.0188438538461924,-0.0256258323788643,-0.023771271109581,-0.021517675369978,-0.0201279912143946
820,0.011390695348382,-0.0198663491755724,-0.0308039989322424,-0.020933186635375,-0.0227548815310001,-0.0205175466835499
821,0.010005003772676,-0.0181124545633793,-0.0318140052258968,-0.0163735151290894,-0.022198922932148,-0.0173257272690535
822,0.00289233424700797,-0.0167205408215523,-0.0313240215182304,-0.0133042866364121,-0.0206083599478006,-0.0125217726454139
823,-0.0108320470899343,-0.0163550022989511,-0.0322396531701088,-0.0127458702772856,-0.017349399626255,-0.00935082789510489
824,-0.0269792024046183,-0.0160484239459038,-0.0356857813894749,-0.01341244392097,-0.0141558358445764,-0.0111974282190204
825,-0.0410771742463112,-0.0160090886056423,-0.0411705039441586,-0.0142779955640435,-0.0137289082631469,-0.0176944602280855
826,-0.0506943464279175,-0.0161996595561504,-0.0471078157424927,-0.0152890812605619,-0.016273457556963,-0.0238683242350817
827,-0.0543523877859116,-0.0157348606735468,-0.0514042377471924,-0.0154110342264175,-0.0202159695327282,-0.0252884607762098
828,-0.052378810942173,-0.0140123460441828,-0.0523660816252232,-0.0132373850792646,-0.022790189832449,-0.0236310996115208
829,-0.0484454110264778,-0.0119354221969843,-0.0491031780838966,-0.0099753076210618,-0.0213865414261818,-0.0233250577002764
830,-0.0455301180481911,-0.00936963688582182,-0.0415790192782879,-0.00756644364446402,-0.0172621794044971,-0.0238082651048899
831,-0.0412366203963757,-0.00456228479743004,-0.0320222266018391,-0.00638221809640527,-0.0138468043878675,-0.0219556223601103
832,-0.0327698104083538,0.00140661792829633,-0.0255191940814257,-0.00601333985105157,-0.0115786287933588,-0.0176969189196825
833,-0.0236648060381413,0.004463623277843,-0.0260176695883274,-0.00561279803514481,-0.0105124404653907,-0.0138017684221268
834,-0.0189727898687124,0.00235019461251795,-0.0314055755734444,-0.00439318316057324,-0.0116371605545282,-0.0130537310615182
835,-0.01884132809937,-0.00310342176817358,-0.0363921336829662,-0.00266992370598018,-0.0137634193524718,-0.0154842007905245
836,-0.0206240229308605,-0.00819052662700415,-0.0386554524302483,-0.00122888619080186,-0.0152446525171399,-0.0179014019668102
837,-0.0221933573484421,-0.0112549560144544,-0.038568988442421,-9.93526919046417E-06,-0.0158585403114557,-0.0171630047261715
838,-0.0229368023574352,-0.0144933480769396,-0.0372942388057709,0.000732069776859134,-0.0163358636200428,-0.0138789201155305
839,-0.0222988277673721,-0.0196835864335299,-0.0360413081943989,0.000276037433650345,-0.0167650803923607,-0.0116696553304791
840,-0.0177817326039076,-0.0247026495635509,-0.0349894352257252,-0.000730395258869976,-0.0154682314023376,-0.0127341151237488
841,-0.00889849476516247,-0.0261190868914127,-0.0330812446773052,-0.000290613970719278,-0.0108110448345542,-0.0151612544432282
842,-0.00204344280064106,-0.0234019551426172,-0.0304576940834522,0.00168357242364436,-0.00501121999695897,-0.0167586505413055
843,-0.00393084902316332,-0.0196453724056482,-0.0296468306332827,0.00232021254487336,-0.00273697287775576,-0.0181412193924189
844,-0.0132371420040727,-0.0179733969271183,-0.0320560932159424,7.56716908654198E-05,-0.00471686199307442,-0.0201336871832609
845,-0.02220344170928,-0.0184765458106995,-0.036452941596508,-0.00351315597072244,-0.00782938301563263,-0.0213117245584726
846,-0.0247812531888485,-0.0194600708782673,-0.0412527173757553,-0.00660104630514979,-0.0105996150523424,-0.0200808104127645
847,-0.022835236042738,-0.0208373833447695,-0.0459582284092903,-0.00890207570046186,-0.0140382573008537,-0.0186455547809601
848,-0.0209739375859499,-0.0229709427803755,-0.0501219406723976,-0.0102643929421902,-0.0178228300064802,-0.0196229368448257
849,-0.0203296914696693,-0.0239520370960236,-0.0529462434351444,-0.00976386107504368,-0.0196263398975134,-0.0215349737554789
850,-0.0188129097223282,-0.0214739628136158,-0.0537226796150208,-0.00680641829967499,-0.0171265080571175,-0.02130944468081
851,-0.0131656965240836,-0.0155159858986735,-0.0512738451361656,-0.00162270374130458,-0.00987924262881279,-0.0170281529426575
852,-0.00334855238907039,-0.00797199178487062,-0.045035794377327,0.00463216612115502,-0.000754977110773325,-0.00943080987781286
853,0.00646692654117942,-0.000597831269260496,-0.0369620397686958,0.0107714477926493,0.00647806888446212,-0.00169473141431808
854,0.0115434741601348,0.00516664423048496,-0.0309975706040859,0.0158411487936974,0.0097502563148737,0.0029289904050529
855,0.0103293620049953,0.00784939154982567,-0.029146421700716,0.0188807379454374,0.00946439243853092,0.0031221667304635
856,0.00603948067873716,0.00832972582429647,-0.0295931864529848,0.0201649777591228,0.00882146973162889,0.00132537772879004
857,0.00267287017777562,0.00895626004785299,-0.030986687168479,0.0199835821986198,0.00965690147131681,0.000891274714376777
858,0.000166778554557823,0.00907279644161463,-0.0347132198512554,0.0168687887489796,0.00961547624319792,0.00120978488121182
859,-0.00308805424720049,0.00771989906206727,-0.0401759892702103,0.0112714841961861,0.00757627608254552,0.00103264488279819
860,-0.00601023901253939,0.00731228105723858,-0.0435272790491581,0.00683061126619577,0.00567270303145051,0.00233076000586152
861,-0.00707154581323266,0.00886985100805759,-0.0437229946255684,0.00489461189135909,0.00417031021788716,0.00580505188554525
862,-0.00541092595085502,0.0102015836164355,-0.0427137427031994,0.00403001764789224,0.00212330650538206,0.00896603427827358
863,-0.00174809771124274,0.00975019857287407,-0.0416947603225708,0.00318622682243586,-0.000141890326631255,0.0100814448669553
864,-0.000245242525124922,0.00738384295254946,-0.0418672077357769,0.00142666883766651,-0.00280085625126958,0.00904320832341909
865,-0.00282136537134647,0.00426083663478494,-0.0434884801506996,-0.000678233511280268,-0.00538149802014232,0.00635967683047056
866,-0.00693793222308159,0.00190757669042796,-0.0450340770184994,-0.00108931679278612,-0.00630513904616237,0.00290102092549205
867,-0.0105774663388729,-0.000323024985846132,-0.0460729263722897,-0.000121248842333443,-0.00589200854301453,-0.000892869487870485
868,-0.0124871367588639,-0.00292459293268621,-0.0468557216227055,0.000653287395834923,-0.00521753076463938,-0.00431852601468563
869,-0.0111549515277147,-0.00400337809696794,-0.0466519147157669,0.00107901892624795,-0.00358525291085243,-0.00609009619802237
870,-0.00741100450977683,-0.00272242212668061,-0.0455107353627682,0.00116783252451569,-0.000348888192093,-0.00581104448065162
871,-0.0038529469165951,-0.000450277177151293,-0.0450406223535538,0.000797790940850973,0.00346696632914245,-0.00402335543185472
872,-0.00176483439281583,0.00119468406774104,-0.0469244085252285,-0.000235817526117899,0.00577593129128218,-0.000951239955611527
873,-0.000496939697768539,0.00175909209065139,-0.0510272644460201,-0.00233934610150754,0.00550558930262923,0.00319567369297147
874,0.00232541654258966,0.0020452537573874,-0.0556337423622608,-0.00515738176181912,0.00421831337735057,0.00669958116486669
875,0.0088931480422616,0.00259482557885349,-0.0592445470392704,-0.00719129759818316,0.00406129192560911,0.00807975232601166
876,0.0162886772304773,0.00313427788205445,-0.0614702813327312,-0.00721465004608035,0.0044915690086782,0.00724397972226143
877,0.017689285799861,0.0029686379712075,-0.0628446638584137,-0.0061960113234818,0.00323534547351301,0.00348066631704569
878,0.0112016079947352,0.0012014425592497,-0.0637299567461014,-0.00589240994304419,0.000157361078890972,-0.00349490786902606
879,0.00185173051431775,-0.00219513196498156,-0.0635106414556503,-0.00605455646291375,-0.00257065752521157,-0.0115815252065659
880,-0.00482119619846344,-0.00610111281275749,-0.0614422671496868,-0.00570117123425007,-0.00365116377361119,-0.0183608308434486
881,-0.00679643684998155,-0.00924164801836014,-0.0580987967550755,-0.00535058369860053,-0.00418796855956316,-0.0228927116841078
882,-0.0046176053583622,-0.0101915169507265,-0.0538129433989525,-0.00542523618787527,-0.00458052754402161,-0.0241631641983986
883,0.000353560462826863,-0.00760940741747618,-0.0472662560641766,-0.0050044497475028,-0.00247250054962933,-0.0207542050629854
884,0.00522098178043962,-0.00242855283431709,-0.0387446545064449,-0.0041790921241045,0.00284631852991879,-0.0139704085886478
885,0.00714122364297509,0.00283330283127725,-0.0307846516370773,-0.00371653120964766,0.00862603448331356,-0.00763893174007535
886,0.00737452507019043,0.00673039443790913,-0.0252828057855368,-0.00292896036989987,0.0116770789027214,-0.00416109478101134
887,0.00947164930403233,0.00834439601749182,-0.0233369935303926,-0.00190448632929474,0.00944928731769323,-0.00423555448651314
888,0.0136708188802004,0.00744513375684619,-0.0254399869590998,-0.00227239448577166,0.00120932306163013,-0.00743011943995953
889,0.0176047086715698,0.00443556439131498,-0.0306691154837608,-0.00528245000168681,-0.00935169588774443,-0.0123516786843538
890,0.0194571502506733,-0.000555379316210747,-0.0362975522875786,-0.0106800543144345,-0.0165693201124668,-0.0174919683486223
891,0.0170015785843134,-0.0054866848513484,-0.0391594357788563,-0.0156977195292711,-0.0194174218922853,-0.0209258925169706
892,0.00843926146626472,-0.00739595200866461,-0.0396479219198227,-0.0179823189973831,-0.0216543525457382,-0.0225962232798338
893,-0.00541788479313254,-0.00712110428139567,-0.0424329750239849,-0.0200379565358162,-0.0273146908730268,-0.0263342708349228
894,-0.0203440804034472,-0.00803314708173275,-0.0496576838195324,-0.0257427394390106,-0.0369629859924316,-0.0350767560303211
895,-0.0312521643936634,-0.0110213691368699,-0.0564834177494049,-0.0334852896630764,-0.0450927093625069,-0.0454544760286808
896,-0.0360891669988632,-0.0139633519575,-0.0576063580811024,-0.0377209521830082,-0.0456184670329094,-0.051309484988451
897,-0.0359270386397839,-0.0147570725530386,-0.0533200167119503,-0.0356047227978706,-0.0401539131999016,-0.0510485246777534
898,-0.0332484245300293,-0.014046560972929,-0.0475309826433659,-0.0292250346392393,-0.03630680590868,-0.0477421283721924
899,-0.0304322876036167,-0.0141551652923226,-0.0446896217763424,-0.0230986792594194,-0.0388077720999718,-0.0436232499778271
900,-0.0297194682061672,-0.0153227932751179,-0.0467048697173595,-0.0207425206899643,-0.0452534258365631,-0.0383061431348324
901,-0.0319052822887897,-0.0157183818519115,-0.0515667162835598,-0.0220161098986864,-0.0507137328386307,-0.0319313257932663
902,-0.0346130803227425,-0.0143178878352046,-0.0559204705059528,-0.0236349608749151,-0.0523911416530609,-0.0263608954846859
903,-0.0356522910296917,-0.0121218133717775,-0.0579262040555477,-0.0240298546850681,-0.0505511090159416,-0.0235148891806602
904,-0.0360326394438744,-0.010853772982955,-0.0582558326423168,-0.0254568941891193,-0.0482137389481068,-0.0242537073791027
905,-0.0364104136824608,-0.0108890393748879,-0.0581241846084595,-0.0294028036296368,-0.0476041585206985,-0.0276232082396746
906,-0.0329425297677517,-0.0114088114351034,-0.057295449078083,-0.0342328585684299,-0.0477154813706875,-0.0314175486564636
907,-0.0235886108130217,-0.0121762724593282,-0.0558483116328716,-0.03871750831604,-0.0476993545889854,-0.0345292054116726
908,-0.0151751041412354,-0.0134030245244503,-0.0550120733678341,-0.0423478111624718,-0.0482509844005108,-0.0361135266721249
909,-0.0153935346752405,-0.0151773039251566,-0.0559821017086506,-0.044341191649437,-0.049372486770153,-0.0343310162425041
910,-0.023512814193964,-0.0167492888867855,-0.058898102492094,-0.0452887713909149,-0.050434872508049,-0.0296944789588451
911,-0.0336791351437569,-0.016530392691493,-0.0624273158609867,-0.0459739118814468,-0.0521103739738464,-0.0253659505397081
912,-0.04142851755023,-0.0136845726519823,-0.0651499181985855,-0.0459784492850304,-0.0560323111712933,-0.0222247410565615
913,-0.0453971028327942,-0.00888371281325817,-0.0662370398640633,-0.0447700880467892,-0.0613615587353706,-0.0181840136647224
914,-0.045878954231739,-0.00456148386001587,-0.0649804994463921,-0.0420820005238056,-0.0647964850068092,-0.012233947403729
915,-0.044052854180336,-0.00346510834060609,-0.0618838630616665,-0.0381891429424286,-0.065022386610508,-0.00751728983595967
916,-0.0419783256947994,-0.00714104901999235,-0.0592285208404064,-0.034714050590992,-0.0638322532176971,-0.00964238028973341
917,-0.0398236177861691,-0.0143556138500571,-0.0583250224590302,-0.033228661864996,-0.0620029345154762,-0.0194196216762066
918,-0.0346743054687977,-0.021120248362422,-0.0591204278171062,-0.0338102281093597,-0.0583078302443028,-0.0314217656850815
919,-0.0254539512097836,-0.0254918280988932,-0.0621239580214024,-0.0362861566245556,-0.053092535585165,-0.040541734546423
920,-0.0171418562531471,-0.0284570343792439,-0.0667553469538689,-0.0402935706079006,-0.0481340624392033,-0.0446606390178204
921,-0.0157504249364138,-0.0302290040999651,-0.070926159620285,-0.0446808002889156,-0.044350691139698,-0.0451810471713543
922,-0.0207404121756554,-0.0297488756477833,-0.0735186636447906,-0.0481860861182213,-0.041606567800045,-0.045761089771986
923,-0.0268402770161629,-0.0255103074014187,-0.0736888498067856,-0.0491194501519203,-0.038238201290369,-0.0457377843558788
924,-0.0297017842531204,-0.0173840001225472,-0.0700945556163788,-0.0465434230864048,-0.0323831550776958,-0.0408134125173092
925,-0.0282913018018007,-0.00906832050532103,-0.063765712082386,-0.0428001806139946,-0.0251243282109499,-0.0318448878824711
926,-0.0241828765720129,-0.0050852382555604,-0.0578534491360188,-0.0412730947136879,-0.0179956648498774,-0.02453369833529
927,-0.0194725692272186,-0.00590023770928383,-0.0549412295222282,-0.0424207299947739,-0.0111417798325419,-0.0214292909950018
928,-0.0159360971301794,-0.00844166800379753,-0.0562995299696922,-0.0444405265152454,-0.00661516329273582,-0.0201671756803989
929,-0.0129597065970302,-0.00861785188317299,-0.0600484646856785,-0.0456856451928616,-0.00614737393334508,-0.018155924975872
930,-0.00948035251349211,-0.00428479351103306,-0.062412042170763,-0.0454634353518486,-0.00836298428475857,-0.0157321449369192
931,-0.00790048763155937,0.00308162858709693,-0.0621615163981915,-0.0434123054146767,-0.0117066018283367,-0.0132825076580048
932,-0.00986479967832565,0.00984765775501728,-0.0606325194239616,-0.0402062200009823,-0.0156615059822798,-0.0102477166801691
933,-0.0128691615536809,0.0132590318098664,-0.0581484921276569,-0.0372388027608395,-0.0192871205508709,-0.00680072465911508
934,-0.0138312261551619,0.0141428345814347,-0.0536983273923397,-0.0343826897442341,-0.0220000073313713,-0.00257196603342891
935,-0.012582553550601,0.014299837872386,-0.0484392717480659,-0.03179781883955,-0.0245274156332016,0.00146901747211814
936,-0.0117781590670347,0.013227641582489,-0.0461815446615219,-0.0318274535238743,-0.0273163970559835,0.00241082394495606
937,-0.0132663836702704,0.00963240023702383,-0.0496012270450592,-0.0361419580876827,-0.0296995118260384,-0.00101740786340088
938,-0.0131146786734462,0.00408591283485293,-0.0567221269011498,-0.0429890267550945,-0.0303655378520489,-0.00737096648663282
939,-0.00603853119537234,-0.000958134129177779,-0.0620265863835812,-0.0484643094241619,-0.0288906302303076,-0.0135044306516647
940,0.00339355715550482,-0.00326580926775932,-0.0618585087358952,-0.0498652048408985,-0.0268305763602257,-0.016494257375598
941,0.00523494929075241,-0.00283455359749496,-0.0578317455947399,-0.0480565652251244,-0.0262610036879778,-0.0161629002541304
942,-0.00217482727020979,-0.00176845723763108,-0.0533153302967548,-0.0461797043681145,-0.0277293343096972,-0.0146289588883519
943,-0.0134348254650831,-0.00131348718423396,-0.0494781695306301,-0.045563418418169,-0.0308909993618727,-0.0125931343063712
944,-0.0243584755808115,-0.00137964112218469,-0.0468031242489815,-0.0454277247190475,-0.0356848388910294,-0.00984825193881989
945,-0.0332637801766396,-0.00223364983685315,-0.0459438897669315,-0.0457310564815998,-0.0404548421502113,-0.00796455051749945
946,-0.038664273917675,-0.00320952851325274,-0.0458455681800842,-0.046182855963707,-0.0416819341480732,-0.00768673000857234
947,-0.0388683639466763,-0.00256229261867702,-0.0443747937679291,-0.0451266504824162,-0.0376526862382889,-0.00754445185884833
948,-0.0337475799024105,4.13797060900833E-05,-0.040740042924881,-0.0416843555867672,-0.0299924071878195,-0.00611384166404605
949,-0.0258634574711323,0.0026606225874275,-0.0363753661513329,-0.0374948419630528,-0.0219138972461224,-0.00371475238353014
950,-0.0180676095187664,0.00384264485910535,-0.0327406972646713,-0.0343360491096973,-0.0156071288511157,-0.00111685320734978
951,-0.0101571520790458,0.00521364854648709,-0.0285874456167221,-0.0305952075868845,-0.0107105355709791,0.00296512711793184
952,-0.00106021645478904,0.00843419414013624,-0.0222320128232241,-0.0245136171579361,-0.00607767561450601,0.00863141287118196
953,0.0074786739423871,0.0120171513408422,-0.0149499094113708,-0.0180406048893929,-0.00187762675341219,0.0121679026633501
954,0.0124929258599877,0.0135857546702027,-0.00963565800338984,-0.0137914782389998,0.000539238099008799,0.01045155338943
955,0.0141375800594687,0.0131505830213428,-0.00635317014530301,-0.0111407721415162,0.0014705496141687,0.00464374711737037
956,0.0141133526340127,0.0114644812420011,-0.0040175667963922,-0.0086715891957283,0.00146221742033958,-0.00223974650725722
957,0.012795158661902,0.00905005540698767,-0.00426200730726123,-0.00641184486448765,-0.00121631554793566,-0.00746570667251945
958,0.0109729580581188,0.00710334815084934,-0.00857180077582598,-0.00503090582787991,-0.00666567357257009,-0.00933112110942602
959,0.0100956289097667,0.00619671912863851,-0.0156079335138202,-0.00597164407372475,-0.0117676751688123,-0.00902112014591694
960,0.0109754288569093,0.00600105943158269,-0.0226755030453205,-0.00977751147001982,-0.0137668298557401,-0.00958282221108675
961,0.0128963934257627,0.00590707920491695,-0.028139678761363,-0.0148078920319676,-0.0132718216627836,-0.0127176530659199
962,0.0150367012247443,0.00680582411587238,-0.0309867635369301,-0.0178378969430923,-0.011694067157805,-0.0164828281849623
963,0.0161688160151243,0.00943013280630112,-0.0317282043397427,-0.0177968163043261,-0.0103139821439981,-0.018825352191925
964,0.0141497068107128,0.0116363577544689,-0.0329138226807117,-0.0172498002648354,-0.0115439780056477,-0.0210932865738869
965,0.00936127360910177,0.0113975862041116,-0.0349790118634701,-0.0176398418843746,-0.0161626618355513,-0.0243922993540764
966,0.00448346696794033,0.00936631765216589,-0.0357538834214211,-0.0172074809670448,-0.023090548813343,-0.0270849093794823
967,0.000637805613223463,0.00703557161614299,-0.0345194526016712,-0.0144374938681722,-0.0314382910728455,-0.0278822742402554
968,-0.00302324257791042,0.00464982306584716,-0.0328988023102283,-0.011026531457901,-0.0405935607850552,-0.0287162810564041
969,-0.0062072928994894,0.00205854326486588,-0.0321244522929192,-0.0103416610509157,-0.049156915396452,-0.033279225230217
970,-0.0074525591917336,-0.000486195436678827,-0.03269924223423,-0.0147560853511095,-0.0553267411887646,-0.0439105071127415
971,-0.00743482261896133,-0.00288353906944394,-0.035738829523325,-0.0242336820811033,-0.0587766766548157,-0.0593704953789711
972,-0.00791435688734055,-0.0046035279519856,-0.0414136499166489,-0.0358930826187134,-0.0608146786689758,-0.0749305710196495
973,-0.00815676525235176,-0.00464206701144576,-0.0472706034779549,-0.0458878315985203,-0.0622363537549973,-0.0863558351993561
974,-0.00625923741608858,-0.00318166194483638,-0.0504779256880283,-0.052526842802763,-0.0620158202946186,-0.0936594381928444
975,-0.00250028376467526,-0.00183389929588884,-0.0512663945555687,-0.0570658817887306,-0.0602143853902817,-0.0997111275792122
976,0.00171692646108568,-0.0014714008430019,-0.0513452664017677,-0.0604924336075783,-0.0586444996297359,-0.105989187955856
977,0.00581889739260077,-0.00141734082717448,-0.0509168170392513,-0.0618663057684898,-0.0576303191483021,-0.111770413815975
978,0.00882288254797459,-0.00113592215348035,-0.0493551008403301,-0.0606574378907681,-0.0560854487121105,-0.116675272583961
979,0.00977549143135548,-0.000368135020835325,-0.0460251346230507,-0.057132862508297,-0.0533348023891449,-0.12061869353056
980,0.00899648945778608,0.000753580883610994,-0.0419110916554928,-0.0525985062122345,-0.0502665936946869,-0.12374784052372
981,0.0069157681427896,0.000438154966104776,-0.0403559692203999,-0.0508147217333317,-0.0487511046230793,-0.128492683172226
982,0.00393688678741455,-0.00311877834610641,-0.043688639998436,-0.0550202280282974,-0.0491634979844093,-0.137625098228455
983,0.0015163574134931,-0.00927969347685575,-0.0504813492298126,-0.0637845620512962,-0.0496643409132957,-0.149528846144676
984,0.000921781698707491,-0.0160247478634119,-0.057046215981245,-0.072462409734726,-0.0486682057380676,-0.159506782889366
985,0.00157794868573546,-0.0214200876653194,-0.0602996908128262,-0.0775219723582268,-0.0461674332618713,-0.165345266461372
986,0.00228006532415748,-0.0232442803680897,-0.0592369362711906,-0.0780330151319504,-0.0424591712653637,-0.167486697435379
987,0.00263033830560744,-0.0203775502741337,-0.0553719662129879,-0.0750654637813568,-0.0376555807888508,-0.166559010744095
988,0.00304025318473578,-0.0145055325701833,-0.0513115525245667,-0.0707723572850227,-0.0321559384465218,-0.163665294647217
989,0.00408783322200179,-0.00911122467368841,-0.0485983900725842,-0.0671384781599045,-0.0272117964923382,-0.160321220755577
990,0.00568624492734671,-0.00775077845901251,-0.0481391027569771,-0.0663891956210136,-0.024682404473424,-0.158484578132629
991,0.00972044002264738,-0.0116000203415751,-0.0496970675885677,-0.0695500522851944,-0.0245133191347122,-0.159256964921951
